;Scopy version,48fb6a9
;Exported on,Wednesday July 24/07/2019
;Device,M2K
;Nr of samples,8000
;Sample rate,1e+06
;Tool,Oscilloscope
;Additional Information,
Sample,Time(S),CH1(V)
0,-0.004,-0.001981
1,-0.003999,0.0045242
2,-0.003998,0.00777681
3,-0.003997,0.0126557
4,-0.003996,0.0191609
5,-0.003995,0.0256661
6,-0.003994,0.0354239
7,-0.003993,0.0403028
8,-0.003992,0.0451818
9,-0.003991,0.0500607
10,-0.00399,0.0565659
11,-0.003989,0.0630711
12,-0.003988,0.0695763
13,-0.003987,0.0760815
14,-0.003986,0.084213
15,-0.003985,0.0874656
16,-0.003984,0.0923445
17,-0.003983,0.0988497
18,-0.003982,0.103729
19,-0.003981,0.113486
20,-0.00398,0.121618
21,-0.003979,0.128123
22,-0.003978,0.131376
23,-0.003977,0.136255
24,-0.003976,0.139507
25,-0.003975,0.146012
26,-0.003974,0.15577
27,-0.003973,0.162275
28,-0.003972,0.167154
29,-0.003971,0.17366
30,-0.00397,0.176912
31,-0.003969,0.183417
32,-0.003968,0.188296
33,-0.003967,0.198054
34,-0.003966,0.204559
35,-0.003965,0.209438
36,-0.003964,0.215943
37,-0.003963,0.220822
38,-0.003962,0.225701
39,-0.003961,0.232206
40,-0.00396,0.238712
41,-0.003959,0.248469
42,-0.003958,0.251722
43,-0.003957,0.258227
44,-0.003956,0.26148
45,-0.003955,0.267985
46,-0.003954,0.27449
47,-0.003953,0.279369
48,-0.003952,0.289127
49,-0.003951,0.29238
50,-0.00395,0.298885
51,-0.003949,0.303764
52,-0.003948,0.308643
53,-0.003947,0.313522
54,-0.003946,0.321653
55,-0.003945,0.326532
56,-0.003944,0.333037
57,-0.003943,0.337916
58,-0.003942,0.346048
59,-0.003941,0.3493
60,-0.00394,0.354179
61,-0.003939,0.360684
62,-0.003938,0.36719
63,-0.003937,0.373695
64,-0.003936,0.3802
65,-0.003935,0.383453
66,-0.003934,0.388331
67,-0.003933,0.396463
68,-0.003932,0.399716
69,-0.003931,0.406221
70,-0.00393,0.412726
71,-0.003929,0.417605
72,-0.003928,0.42411
73,-0.003927,0.425736
74,-0.003926,0.433868
75,-0.003925,0.440373
76,-0.003924,0.445252
77,-0.003923,0.448505
78,-0.003922,0.45501
79,-0.003921,0.461515
80,-0.00392,0.466394
81,-0.003919,0.469647
82,-0.003918,0.476152
83,-0.003917,0.481031
84,-0.003916,0.487536
85,-0.003915,0.490788
86,-0.003914,0.49892
87,-0.003913,0.500546
88,-0.003912,0.507051
89,-0.003911,0.513557
90,-0.00391,0.516809
91,-0.003909,0.524941
92,-0.003908,0.528193
93,-0.003907,0.534699
94,-0.003906,0.537951
95,-0.003905,0.54283
96,-0.003904,0.549335
97,-0.003903,0.554214
98,-0.003902,0.559093
99,-0.003901,0.565598
100,-0.0039,0.567225
101,-0.003899,0.572104
102,-0.003898,0.578609
103,-0.003897,0.581861
104,-0.003896,0.588367
105,-0.003895,0.593246
106,-0.003894,0.598124
107,-0.003893,0.60463
108,-0.003892,0.606256
109,-0.003891,0.612761
110,-0.00389,0.616014
111,-0.003889,0.620893
112,-0.003888,0.625772
113,-0.003887,0.632277
114,-0.003886,0.635529
115,-0.003885,0.638782
116,-0.003884,0.645287
117,-0.003883,0.650166
118,-0.003882,0.655045
119,-0.003881,0.659924
120,-0.00388,0.663176
121,-0.003879,0.668055
122,-0.003878,0.671308
123,-0.003877,0.676187
124,-0.003876,0.679439
125,-0.003875,0.685945
126,-0.003874,0.689197
127,-0.003873,0.694076
128,-0.003872,0.697329
129,-0.003871,0.702208
130,-0.00387,0.70546
131,-0.003869,0.708713
132,-0.003868,0.715218
133,-0.003867,0.718471
134,-0.003866,0.721723
135,-0.003865,0.726602
136,-0.003864,0.729855
137,-0.003863,0.733107
138,-0.003862,0.739613
139,-0.003861,0.744492
140,-0.00386,0.747744
141,-0.003859,0.750997
142,-0.003858,0.754249
143,-0.003857,0.759128
144,-0.003856,0.762381
145,-0.003855,0.76726
146,-0.003854,0.770512
147,-0.003853,0.770512
148,-0.003852,0.777018
149,-0.003851,0.781897
150,-0.00385,0.785149
151,-0.003849,0.788402
152,-0.003848,0.791654
153,-0.003847,0.794907
154,-0.003846,0.79816
155,-0.003845,0.801412
156,-0.003844,0.804665
157,-0.003843,0.809544
158,-0.003842,0.814423
159,-0.003841,0.816049
160,-0.00384,0.819301
161,-0.003839,0.822554
162,-0.003838,0.82418
163,-0.003837,0.829059
164,-0.003836,0.830686
165,-0.003835,0.837191
166,-0.003834,0.840443
167,-0.003833,0.840443
168,-0.003832,0.84207
169,-0.003831,0.845322
170,-0.00383,0.850201
171,-0.003829,0.853454
172,-0.003828,0.856706
173,-0.003827,0.859959
174,-0.003826,0.861585
175,-0.003825,0.863212
176,-0.003824,0.866464
177,-0.003823,0.869717
178,-0.003822,0.872969
179,-0.003821,0.876222
180,-0.00382,0.879475
181,-0.003819,0.879475
182,-0.003818,0.882727
183,-0.003817,0.884354
184,-0.003816,0.887606
185,-0.003815,0.890859
186,-0.003814,0.895738
187,-0.003813,0.894111
188,-0.003812,0.897364
189,-0.003811,0.89899
190,-0.00381,0.902243
191,-0.003809,0.905495
192,-0.003808,0.908748
193,-0.003807,0.910374
194,-0.003806,0.912001
195,-0.003805,0.912001
196,-0.003804,0.912001
197,-0.003803,0.91688
198,-0.003802,0.920132
199,-0.003801,0.921758
200,-0.0038,0.925011
201,-0.003799,0.928264
202,-0.003798,0.928264
203,-0.003797,0.928264
204,-0.003796,0.931516
205,-0.003795,0.931516
206,-0.003794,0.936395
207,-0.003793,0.936395
208,-0.003792,0.938021
209,-0.003791,0.939648
210,-0.00379,0.936395
211,-0.003789,0.941274
212,-0.003788,0.9429
213,-0.003787,0.946153
214,-0.003786,0.946153
215,-0.003785,0.947779
216,-0.003784,0.947779
217,-0.003783,0.947779
218,-0.003782,0.951032
219,-0.003781,0.951032
220,-0.00378,0.955911
221,-0.003779,0.955911
222,-0.003778,0.957537
223,-0.003777,0.957537
224,-0.003776,0.955911
225,-0.003775,0.959163
226,-0.003774,0.96079
227,-0.003773,0.96079
228,-0.003772,0.964042
229,-0.003771,0.964042
230,-0.00377,0.964042
231,-0.003769,0.962416
232,-0.003768,0.962416
233,-0.003767,0.965669
234,-0.003766,0.968921
235,-0.003765,0.967295
236,-0.003764,0.967295
237,-0.003763,0.970548
238,-0.003762,0.967295
239,-0.003761,0.968921
240,-0.00376,0.968921
241,-0.003759,0.970548
242,-0.003758,0.968921
243,-0.003757,0.970548
244,-0.003756,0.968921
245,-0.003755,0.972174
246,-0.003754,0.972174
247,-0.003753,0.972174
248,-0.003752,0.975426
249,-0.003751,0.9738
250,-0.00375,0.9738
251,-0.003749,0.970548
252,-0.003748,0.970548
253,-0.003747,0.970548
254,-0.003746,0.972174
255,-0.003745,0.9738
256,-0.003744,0.972174
257,-0.003743,0.972174
258,-0.003742,0.967295
259,-0.003741,0.970548
260,-0.00374,0.968921
261,-0.003739,0.968921
262,-0.003738,0.970548
263,-0.003737,0.970548
264,-0.003736,0.965669
265,-0.003735,0.968921
266,-0.003734,0.967295
267,-0.003733,0.965669
268,-0.003732,0.965669
269,-0.003731,0.964042
270,-0.00373,0.967295
271,-0.003729,0.965669
272,-0.003728,0.964042
273,-0.003727,0.96079
274,-0.003726,0.96079
275,-0.003725,0.962416
276,-0.003724,0.959163
277,-0.003723,0.959163
278,-0.003722,0.959163
279,-0.003721,0.955911
280,-0.00372,0.954284
281,-0.003719,0.954284
282,-0.003718,0.952658
283,-0.003717,0.952658
284,-0.003716,0.951032
285,-0.003715,0.949406
286,-0.003714,0.946153
287,-0.003713,0.947779
288,-0.003712,0.944527
289,-0.003711,0.944527
290,-0.00371,0.941274
291,-0.003709,0.941274
292,-0.003708,0.938021
293,-0.003707,0.938021
294,-0.003706,0.938021
295,-0.003705,0.934769
296,-0.003704,0.933143
297,-0.003703,0.92989
298,-0.003702,0.92989
299,-0.003701,0.925011
300,-0.0037,0.926637
301,-0.003699,0.923385
302,-0.003698,0.921758
303,-0.003697,0.920132
304,-0.003696,0.918506
305,-0.003695,0.915253
306,-0.003694,0.912001
307,-0.003693,0.912001
308,-0.003692,0.908748
309,-0.003691,0.907122
310,-0.00369,0.905495
311,-0.003689,0.902243
312,-0.003688,0.900617
313,-0.003687,0.895738
314,-0.003686,0.894111
315,-0.003685,0.890859
316,-0.003684,0.890859
317,-0.003683,0.889232
318,-0.003682,0.88598
319,-0.003681,0.882727
320,-0.00368,0.882727
321,-0.003679,0.877848
322,-0.003678,0.874596
323,-0.003677,0.871343
324,-0.003676,0.871343
325,-0.003675,0.868091
326,-0.003674,0.864838
327,-0.003673,0.861585
328,-0.003672,0.858333
329,-0.003671,0.853454
330,-0.00367,0.853454
331,-0.003669,0.848575
332,-0.003668,0.848575
333,-0.003667,0.843696
334,-0.003666,0.840443
335,-0.003665,0.837191
336,-0.003664,0.833938
337,-0.003663,0.830686
338,-0.003662,0.827433
339,-0.003661,0.82418
340,-0.00366,0.820928
341,-0.003659,0.817675
342,-0.003658,0.817675
343,-0.003657,0.812796
344,-0.003656,0.809544
345,-0.003655,0.806291
346,-0.003654,0.801412
347,-0.003653,0.799786
348,-0.003652,0.796533
349,-0.003651,0.791654
350,-0.00365,0.790028
351,-0.003649,0.783523
352,-0.003648,0.78027
353,-0.003647,0.777018
354,-0.003646,0.773765
355,-0.003645,0.770512
356,-0.003644,0.76726
357,-0.003643,0.762381
358,-0.003642,0.759128
359,-0.003641,0.754249
360,-0.00364,0.750997
361,-0.003639,0.746118
362,-0.003638,0.742865
363,-0.003637,0.739613
364,-0.003636,0.734734
365,-0.003635,0.731481
366,-0.003634,0.726602
367,-0.003633,0.72335
368,-0.003632,0.718471
369,-0.003631,0.715218
370,-0.00363,0.710339
371,-0.003629,0.707087
372,-0.003628,0.703834
373,-0.003627,0.697329
374,-0.003626,0.694076
375,-0.003625,0.689197
376,-0.003624,0.684318
377,-0.003623,0.681066
378,-0.003622,0.674561
379,-0.003621,0.671308
380,-0.00362,0.668055
381,-0.003619,0.663176
382,-0.003618,0.658298
383,-0.003617,0.651792
384,-0.003616,0.650166
385,-0.003615,0.643661
386,-0.003614,0.640408
387,-0.003613,0.635529
388,-0.003612,0.632277
389,-0.003611,0.625772
390,-0.00361,0.620893
391,-0.003609,0.61764
392,-0.003608,0.612761
393,-0.003607,0.607882
394,-0.003606,0.601377
395,-0.003605,0.598124
396,-0.003604,0.591619
397,-0.003603,0.588367
398,-0.003602,0.583488
399,-0.003601,0.578609
400,-0.0036,0.57373
401,-0.003599,0.567225
402,-0.003598,0.562346
403,-0.003597,0.559093
404,-0.003596,0.554214
405,-0.003595,0.549335
406,-0.003594,0.54283
407,-0.003593,0.537951
408,-0.003592,0.531446
409,-0.003591,0.528193
410,-0.00359,0.523315
411,-0.003589,0.518436
412,-0.003588,0.515183
413,-0.003587,0.508678
414,-0.003586,0.500546
415,-0.003585,0.497294
416,-0.003584,0.492415
417,-0.003583,0.487536
418,-0.003582,0.481031
419,-0.003581,0.474525
420,-0.00358,0.471273
421,-0.003579,0.464768
422,-0.003578,0.458262
423,-0.003577,0.45501
424,-0.003576,0.450131
425,-0.003575,0.443626
426,-0.003574,0.438747
427,-0.003573,0.433868
428,-0.003572,0.427363
429,-0.003571,0.422484
430,-0.00357,0.417605
431,-0.003569,0.4111
432,-0.003568,0.406221
433,-0.003567,0.399716
434,-0.003566,0.396463
435,-0.003565,0.388331
436,-0.003564,0.383453
437,-0.003563,0.376947
438,-0.003562,0.370442
439,-0.003561,0.365563
440,-0.00356,0.362311
441,-0.003559,0.354179
442,-0.003558,0.347674
443,-0.003557,0.341169
444,-0.003556,0.334663
445,-0.003555,0.331411
446,-0.003554,0.328158
447,-0.003553,0.321653
448,-0.003552,0.315148
449,-0.003551,0.308643
450,-0.00355,0.302137
451,-0.003549,0.297259
452,-0.003548,0.290753
453,-0.003547,0.287501
454,-0.003546,0.280996
455,-0.003545,0.27449
456,-0.003544,0.266359
457,-0.003543,0.26148
458,-0.003542,0.256601
459,-0.003541,0.250096
460,-0.00354,0.245217
461,-0.003539,0.238712
462,-0.003538,0.232206
463,-0.003537,0.225701
464,-0.003536,0.219196
465,-0.003535,0.214317
466,-0.003534,0.209438
467,-0.003533,0.202933
468,-0.003532,0.198054
469,-0.003531,0.188296
470,-0.00353,0.185044
471,-0.003529,0.178539
472,-0.003528,0.172033
473,-0.003527,0.165528
474,-0.003526,0.162275
475,-0.003525,0.15577
476,-0.003524,0.149265
477,-0.003523,0.14276
478,-0.003522,0.136255
479,-0.003521,0.129749
480,-0.00352,0.123244
481,-0.003519,0.119992
482,-0.003518,0.113486
483,-0.003517,0.105355
484,-0.003516,0.0988497
485,-0.003515,0.0923445
486,-0.003514,0.0858393
487,-0.003513,0.0825867
488,-0.003512,0.0744552
489,-0.003511,0.0695763
490,-0.00351,0.0663237
491,-0.003509,0.0565659
492,-0.003508,0.0500607
493,-0.003507,0.0451818
494,-0.003506,0.0386765
495,-0.003505,0.0321713
496,-0.003504,0.0289187
497,-0.003503,0.0207872
498,-0.003502,0.014282
499,-0.003501,0.00777681
500,-0.0035,0.0012716
501,-0.003499,-0.00523361
502,-0.003498,-0.00685991
503,-0.003497,-0.0166177
504,-0.003496,-0.0198703
505,-0.003495,-0.0263755
506,-0.003494,-0.034507
507,-0.003493,-0.0377596
508,-0.003492,-0.0458912
509,-0.003491,-0.0507701
510,-0.00349,-0.0572753
511,-0.003489,-0.0637805
512,-0.003488,-0.0702857
513,-0.003487,-0.0767909
514,-0.003486,-0.0832961
515,-0.003485,-0.0898013
516,-0.003484,-0.0963065
517,-0.003483,-0.0995591
518,-0.003482,-0.106064
519,-0.003481,-0.11257
520,-0.00348,-0.119075
521,-0.003479,-0.12558
522,-0.003478,-0.132085
523,-0.003477,-0.13859
524,-0.003476,-0.145096
525,-0.003475,-0.148348
526,-0.003474,-0.154853
527,-0.003473,-0.162985
528,-0.003472,-0.16949
529,-0.003471,-0.174369
530,-0.00347,-0.180874
531,-0.003469,-0.185753
532,-0.003468,-0.190632
533,-0.003467,-0.197137
534,-0.003466,-0.203642
535,-0.003465,-0.210148
536,-0.003464,-0.216653
537,-0.003463,-0.223158
538,-0.003462,-0.226411
539,-0.003461,-0.232916
540,-0.00346,-0.239421
541,-0.003459,-0.245926
542,-0.003458,-0.254058
543,-0.003457,-0.25731
544,-0.003456,-0.263816
545,-0.003455,-0.270321
546,-0.003454,-0.273573
547,-0.003453,-0.281705
548,-0.003452,-0.28821
549,-0.003451,-0.293089
550,-0.00345,-0.299594
551,-0.003449,-0.306099
552,-0.003448,-0.307726
553,-0.003447,-0.315857
554,-0.003446,-0.322362
555,-0.003445,-0.328868
556,-0.003444,-0.333747
557,-0.003443,-0.338625
558,-0.003442,-0.345131
559,-0.003441,-0.35001
560,-0.00344,-0.356515
561,-0.003439,-0.361394
562,-0.003438,-0.367899
563,-0.003437,-0.374404
564,-0.003436,-0.379283
565,-0.003435,-0.382536
566,-0.003434,-0.390667
567,-0.003433,-0.395546
568,-0.003432,-0.402051
569,-0.003431,-0.405304
570,-0.00343,-0.411809
571,-0.003429,-0.418314
572,-0.003428,-0.423193
573,-0.003427,-0.428072
574,-0.003426,-0.434577
575,-0.003425,-0.439456
576,-0.003424,-0.445961
577,-0.003423,-0.449214
578,-0.003422,-0.455719
579,-0.003421,-0.462224
580,-0.00342,-0.467103
581,-0.003419,-0.473609
582,-0.003418,-0.478487
583,-0.003417,-0.48174
584,-0.003416,-0.486619
585,-0.003415,-0.491498
586,-0.003414,-0.498003
587,-0.003413,-0.504508
588,-0.003412,-0.511014
589,-0.003411,-0.514266
590,-0.00341,-0.519145
591,-0.003409,-0.522398
592,-0.003408,-0.530529
593,-0.003407,-0.533782
594,-0.003406,-0.541913
595,-0.003405,-0.548418
596,-0.003404,-0.551671
597,-0.003403,-0.554924
598,-0.003402,-0.558176
599,-0.003401,-0.563055
600,-0.0034,-0.56956
601,-0.003399,-0.576066
602,-0.003398,-0.582571
603,-0.003397,-0.585823
604,-0.003396,-0.589076
605,-0.003395,-0.592329
606,-0.003394,-0.595581
607,-0.003393,-0.605339
608,-0.003392,-0.611844
609,-0.003391,-0.615097
610,-0.00339,-0.619976
611,-0.003389,-0.623228
612,-0.003388,-0.626481
613,-0.003387,-0.63136
614,-0.003386,-0.637865
615,-0.003385,-0.641118
616,-0.003384,-0.649249
617,-0.003383,-0.652502
618,-0.003382,-0.655754
619,-0.003381,-0.659007
620,-0.00338,-0.66226
621,-0.003379,-0.668765
622,-0.003378,-0.673644
623,-0.003377,-0.680149
624,-0.003376,-0.683402
625,-0.003375,-0.686654
626,-0.003374,-0.689907
627,-0.003373,-0.693159
628,-0.003372,-0.696412
629,-0.003371,-0.704543
630,-0.00337,-0.709422
631,-0.003369,-0.714301
632,-0.003368,-0.715928
633,-0.003367,-0.717554
634,-0.003366,-0.724059
635,-0.003365,-0.727312
636,-0.003364,-0.730564
637,-0.003363,-0.738696
638,-0.003362,-0.740322
639,-0.003361,-0.743575
640,-0.00336,-0.746827
641,-0.003359,-0.75008
642,-0.003358,-0.756585
643,-0.003357,-0.761464
644,-0.003356,-0.764717
645,-0.003355,-0.771222
646,-0.003354,-0.772848
647,-0.003353,-0.774474
648,-0.003352,-0.777727
649,-0.003351,-0.78098
650,-0.00335,-0.785859
651,-0.003349,-0.790737
652,-0.003348,-0.79399
653,-0.003347,-0.798869
654,-0.003346,-0.798869
655,-0.003345,-0.803748
656,-0.003344,-0.805374
657,-0.003343,-0.811879
658,-0.003342,-0.813506
659,-0.003341,-0.820011
660,-0.00334,-0.820011
661,-0.003339,-0.823263
662,-0.003338,-0.82489
663,-0.003337,-0.829769
664,-0.003336,-0.833021
665,-0.003335,-0.836274
666,-0.003334,-0.841153
667,-0.003333,-0.844405
668,-0.003332,-0.846032
669,-0.003331,-0.846032
670,-0.00333,-0.852537
671,-0.003329,-0.855789
672,-0.003328,-0.859042
673,-0.003327,-0.860668
674,-0.003326,-0.863921
675,-0.003325,-0.865547
676,-0.003324,-0.867174
677,-0.003323,-0.870426
678,-0.003322,-0.875305
679,-0.003321,-0.878558
680,-0.00332,-0.880184
681,-0.003319,-0.88181
682,-0.003318,-0.883437
683,-0.003317,-0.886689
684,-0.003316,-0.889942
685,-0.003315,-0.891568
686,-0.003314,-0.898073
687,-0.003313,-0.8997
688,-0.003312,-0.8997
689,-0.003311,-0.8997
690,-0.00331,-0.902952
691,-0.003309,-0.906205
692,-0.003308,-0.909457
693,-0.003307,-0.91271
694,-0.003306,-0.914336
695,-0.003305,-0.914336
696,-0.003304,-0.917589
697,-0.003303,-0.919215
698,-0.003302,-0.920842
699,-0.003301,-0.924094
700,-0.0033,-0.925721
701,-0.003299,-0.928973
702,-0.003298,-0.928973
703,-0.003297,-0.928973
704,-0.003296,-0.932226
705,-0.003295,-0.933852
706,-0.003294,-0.937105
707,-0.003293,-0.938731
708,-0.003292,-0.938731
709,-0.003291,-0.941984
710,-0.00329,-0.940357
711,-0.003289,-0.94361
712,-0.003288,-0.945236
713,-0.003287,-0.948489
714,-0.003286,-0.946862
715,-0.003285,-0.950115
716,-0.003284,-0.950115
717,-0.003283,-0.950115
718,-0.003282,-0.951741
719,-0.003281,-0.951741
720,-0.00328,-0.958247
721,-0.003279,-0.958247
722,-0.003278,-0.958247
723,-0.003277,-0.958247
724,-0.003276,-0.959873
725,-0.003275,-0.959873
726,-0.003274,-0.959873
727,-0.003273,-0.963125
728,-0.003272,-0.964752
729,-0.003271,-0.966378
730,-0.00327,-0.963125
731,-0.003269,-0.964752
732,-0.003268,-0.966378
733,-0.003267,-0.968004
734,-0.003266,-0.969631
735,-0.003265,-0.969631
736,-0.003264,-0.969631
737,-0.003263,-0.971257
738,-0.003262,-0.971257
739,-0.003261,-0.971257
740,-0.00326,-0.971257
741,-0.003259,-0.969631
742,-0.003258,-0.972883
743,-0.003257,-0.972883
744,-0.003256,-0.971257
745,-0.003255,-0.97451
746,-0.003254,-0.97451
747,-0.003253,-0.97451
748,-0.003252,-0.97451
749,-0.003251,-0.972883
750,-0.00325,-0.97451
751,-0.003249,-0.97451
752,-0.003248,-0.971257
753,-0.003247,-0.972883
754,-0.003246,-0.97451
755,-0.003245,-0.97451
756,-0.003244,-0.97451
757,-0.003243,-0.972883
758,-0.003242,-0.969631
759,-0.003241,-0.971257
760,-0.00324,-0.969631
761,-0.003239,-0.972883
762,-0.003238,-0.972883
763,-0.003237,-0.971257
764,-0.003236,-0.971257
765,-0.003235,-0.966378
766,-0.003234,-0.966378
767,-0.003233,-0.969631
768,-0.003232,-0.969631
769,-0.003231,-0.968004
770,-0.00323,-0.964752
771,-0.003229,-0.966378
772,-0.003228,-0.964752
773,-0.003227,-0.961499
774,-0.003226,-0.963125
775,-0.003225,-0.963125
776,-0.003224,-0.959873
777,-0.003223,-0.959873
778,-0.003222,-0.959873
779,-0.003221,-0.95662
780,-0.00322,-0.95662
781,-0.003219,-0.954994
782,-0.003218,-0.954994
783,-0.003217,-0.954994
784,-0.003216,-0.951741
785,-0.003215,-0.951741
786,-0.003214,-0.948489
787,-0.003213,-0.948489
788,-0.003212,-0.946862
789,-0.003211,-0.946862
790,-0.00321,-0.94361
791,-0.003209,-0.94361
792,-0.003208,-0.940357
793,-0.003207,-0.940357
794,-0.003206,-0.937105
795,-0.003205,-0.937105
796,-0.003204,-0.937105
797,-0.003203,-0.932226
798,-0.003202,-0.932226
799,-0.003201,-0.928973
800,-0.0032,-0.927347
801,-0.003199,-0.924094
802,-0.003198,-0.924094
803,-0.003197,-0.920842
804,-0.003196,-0.920842
805,-0.003195,-0.915963
806,-0.003194,-0.915963
807,-0.003193,-0.914336
808,-0.003192,-0.911084
809,-0.003191,-0.909457
810,-0.00319,-0.906205
811,-0.003189,-0.904579
812,-0.003188,-0.901326
813,-0.003187,-0.898073
814,-0.003186,-0.898073
815,-0.003185,-0.894821
816,-0.003184,-0.891568
817,-0.003183,-0.889942
818,-0.003182,-0.886689
819,-0.003181,-0.885063
820,-0.00318,-0.88181
821,-0.003179,-0.88181
822,-0.003178,-0.876931
823,-0.003177,-0.873679
824,-0.003176,-0.870426
825,-0.003175,-0.867174
826,-0.003174,-0.865547
827,-0.003173,-0.863921
828,-0.003172,-0.862295
829,-0.003171,-0.857416
830,-0.00317,-0.854163
831,-0.003169,-0.850911
832,-0.003168,-0.847658
833,-0.003167,-0.844405
834,-0.003166,-0.842779
835,-0.003165,-0.841153
836,-0.003164,-0.8379
837,-0.003163,-0.833021
838,-0.003162,-0.829769
839,-0.003161,-0.826516
840,-0.00316,-0.821637
841,-0.003159,-0.821637
842,-0.003158,-0.820011
843,-0.003157,-0.813506
844,-0.003156,-0.810253
845,-0.003155,-0.807
846,-0.003154,-0.802122
847,-0.003153,-0.798869
848,-0.003152,-0.797243
849,-0.003151,-0.79399
850,-0.00315,-0.790737
851,-0.003149,-0.785859
852,-0.003148,-0.78098
853,-0.003147,-0.777727
854,-0.003146,-0.774474
855,-0.003145,-0.771222
856,-0.003144,-0.767969
857,-0.003143,-0.764717
858,-0.003142,-0.759838
859,-0.003141,-0.754959
860,-0.00314,-0.751706
861,-0.003139,-0.746827
862,-0.003138,-0.743575
863,-0.003137,-0.740322
864,-0.003136,-0.737069
865,-0.003135,-0.732191
866,-0.003134,-0.727312
867,-0.003133,-0.724059
868,-0.003132,-0.71918
869,-0.003131,-0.715928
870,-0.00313,-0.712675
871,-0.003129,-0.70617
872,-0.003128,-0.704543
873,-0.003127,-0.698038
874,-0.003126,-0.693159
875,-0.003125,-0.68828
876,-0.003124,-0.685028
877,-0.003123,-0.681775
878,-0.003122,-0.680149
879,-0.003121,-0.673644
880,-0.00312,-0.668765
881,-0.003119,-0.66226
882,-0.003118,-0.657381
883,-0.003117,-0.655754
884,-0.003116,-0.652502
885,-0.003115,-0.647623
886,-0.003114,-0.64437
887,-0.003113,-0.637865
888,-0.003112,-0.629734
889,-0.003111,-0.626481
890,-0.00311,-0.623228
891,-0.003109,-0.619976
892,-0.003108,-0.615097
893,-0.003107,-0.608592
894,-0.003106,-0.603713
895,-0.003105,-0.597207
896,-0.003104,-0.592329
897,-0.003103,-0.589076
898,-0.003102,-0.585823
899,-0.003101,-0.580944
900,-0.0031,-0.574439
901,-0.003099,-0.56956
902,-0.003098,-0.563055
903,-0.003097,-0.559803
904,-0.003096,-0.554924
905,-0.003095,-0.551671
906,-0.003094,-0.546792
907,-0.003093,-0.540287
908,-0.003092,-0.533782
909,-0.003091,-0.528903
910,-0.00309,-0.524024
911,-0.003089,-0.517519
912,-0.003088,-0.515892
913,-0.003087,-0.509387
914,-0.003086,-0.502882
915,-0.003085,-0.496377
916,-0.003084,-0.491498
917,-0.003083,-0.486619
918,-0.003082,-0.483366
919,-0.003081,-0.478487
920,-0.00308,-0.471982
921,-0.003079,-0.46873
922,-0.003078,-0.458972
923,-0.003077,-0.455719
924,-0.003076,-0.45084
925,-0.003075,-0.445961
926,-0.003074,-0.439456
927,-0.003073,-0.434577
928,-0.003072,-0.428072
929,-0.003071,-0.423193
930,-0.00307,-0.416688
931,-0.003069,-0.410183
932,-0.003068,-0.40693
933,-0.003067,-0.402051
934,-0.003066,-0.397172
935,-0.003065,-0.389041
936,-0.003064,-0.380909
937,-0.003063,-0.377657
938,-0.003062,-0.374404
939,-0.003061,-0.366273
940,-0.00306,-0.36302
941,-0.003059,-0.356515
942,-0.003058,-0.35001
943,-0.003057,-0.341878
944,-0.003056,-0.338625
945,-0.003055,-0.335373
946,-0.003054,-0.328868
947,-0.003053,-0.322362
948,-0.003052,-0.315857
949,-0.003051,-0.309352
950,-0.00305,-0.302847
951,-0.003049,-0.297968
952,-0.003048,-0.294715
953,-0.003047,-0.28821
954,-0.003046,-0.281705
955,-0.003045,-0.2752
956,-0.003044,-0.267068
957,-0.003043,-0.263816
958,-0.003042,-0.25731
959,-0.003041,-0.252432
960,-0.00304,-0.245926
961,-0.003039,-0.239421
962,-0.003038,-0.234542
963,-0.003037,-0.226411
964,-0.003036,-0.219905
965,-0.003035,-0.215027
966,-0.003034,-0.211774
967,-0.003033,-0.203642
968,-0.003032,-0.197137
969,-0.003031,-0.190632
970,-0.00303,-0.184127
971,-0.003029,-0.180874
972,-0.003028,-0.174369
973,-0.003027,-0.16949
974,-0.003026,-0.162985
975,-0.003025,-0.15648
976,-0.003024,-0.149974
977,-0.003023,-0.143469
978,-0.003022,-0.136964
979,-0.003021,-0.132085
980,-0.00302,-0.12558
981,-0.003019,-0.120701
982,-0.003018,-0.114196
983,-0.003017,-0.107691
984,-0.003016,-0.0979328
985,-0.003015,-0.0963065
986,-0.003014,-0.0898013
987,-0.003013,-0.0849224
988,-0.003012,-0.0751646
989,-0.003011,-0.0735383
990,-0.00301,-0.0637805
991,-0.003009,-0.0572753
992,-0.003008,-0.0507701
993,-0.003007,-0.0475175
994,-0.003006,-0.0426386
995,-0.003005,-0.0361333
996,-0.003004,-0.0296281
997,-0.003003,-0.0214966
998,-0.003002,-0.0149914
999,-0.003001,-0.00848621
1000,-0.003,-0.001981
1001,-0.002999,0.0012716
1002,-0.002998,0.00615051
1003,-0.002997,0.0126557
1004,-0.002996,0.0207872
1005,-0.002995,0.0289187
1006,-0.002994,0.0321713
1007,-0.002993,0.0403028
1008,-0.002992,0.0435554
1009,-0.002991,0.0500607
1010,-0.00299,0.0565659
1011,-0.002989,0.0630711
1012,-0.002988,0.0695763
1013,-0.002987,0.0760815
1014,-0.002986,0.0825867
1015,-0.002985,0.0874656
1016,-0.002984,0.0939708
1017,-0.002983,0.0988497
1018,-0.002982,0.106981
1019,-0.002981,0.113486
1020,-0.00298,0.118365
1021,-0.002979,0.123244
1022,-0.002978,0.129749
1023,-0.002977,0.136255
1024,-0.002976,0.14276
1025,-0.002975,0.149265
1026,-0.002974,0.15577
1027,-0.002973,0.160649
1028,-0.002972,0.167154
1029,-0.002971,0.172033
1030,-0.00297,0.178539
1031,-0.002969,0.185044
1032,-0.002968,0.191549
1033,-0.002967,0.198054
1034,-0.002966,0.202933
1035,-0.002965,0.209438
1036,-0.002964,0.214317
1037,-0.002963,0.219196
1038,-0.002962,0.227328
1039,-0.002961,0.232206
1040,-0.00296,0.238712
1041,-0.002959,0.245217
1042,-0.002958,0.250096
1043,-0.002957,0.256601
1044,-0.002956,0.26148
1045,-0.002955,0.267985
1046,-0.002954,0.276117
1047,-0.002953,0.282622
1048,-0.002952,0.285874
1049,-0.002951,0.29238
1050,-0.00295,0.297259
1051,-0.002949,0.303764
1052,-0.002948,0.308643
1053,-0.002947,0.315148
1054,-0.002946,0.321653
1055,-0.002945,0.326532
1056,-0.002944,0.331411
1057,-0.002943,0.33629
1058,-0.002942,0.342795
1059,-0.002941,0.3493
1060,-0.00294,0.354179
1061,-0.002939,0.362311
1062,-0.002938,0.365563
1063,-0.002937,0.373695
1064,-0.002936,0.376947
1065,-0.002935,0.383453
1066,-0.002934,0.391584
1067,-0.002933,0.394837
1068,-0.002932,0.399716
1069,-0.002931,0.404594
1070,-0.00293,0.4111
1071,-0.002929,0.414352
1072,-0.002928,0.422484
1073,-0.002927,0.427363
1074,-0.002926,0.433868
1075,-0.002925,0.438747
1076,-0.002924,0.445252
1077,-0.002923,0.446878
1078,-0.002922,0.45501
1079,-0.002921,0.461515
1080,-0.00292,0.46802
1081,-0.002919,0.471273
1082,-0.002918,0.477778
1083,-0.002917,0.481031
1084,-0.002916,0.482657
1085,-0.002915,0.494041
1086,-0.002914,0.495667
1087,-0.002913,0.503799
1088,-0.002912,0.508678
1089,-0.002911,0.513557
1090,-0.00291,0.515183
1091,-0.002909,0.521688
1092,-0.002908,0.528193
1093,-0.002907,0.534699
1094,-0.002906,0.541204
1095,-0.002905,0.544456
1096,-0.002904,0.547709
1097,-0.002903,0.554214
1098,-0.002902,0.555841
1099,-0.002901,0.562346
1100,-0.0029,0.568851
1101,-0.002899,0.575356
1102,-0.002898,0.581861
1103,-0.002897,0.585114
1104,-0.002896,0.585114
1105,-0.002895,0.591619
1106,-0.002894,0.596498
1107,-0.002893,0.603003
1108,-0.002892,0.607882
1109,-0.002891,0.614387
1110,-0.00289,0.61764
1111,-0.002889,0.620893
1112,-0.002888,0.624145
1113,-0.002887,0.629024
1114,-0.002886,0.637156
1115,-0.002885,0.640408
1116,-0.002884,0.646913
1117,-0.002883,0.650166
1118,-0.002882,0.653419
1119,-0.002881,0.658298
1120,-0.00288,0.66155
1121,-0.002879,0.669682
1122,-0.002878,0.671308
1123,-0.002877,0.677813
1124,-0.002876,0.681066
1125,-0.002875,0.684318
1126,-0.002874,0.687571
1127,-0.002873,0.69245
1128,-0.002872,0.698955
1129,-0.002871,0.703834
1130,-0.00287,0.707087
1131,-0.002869,0.710339
1132,-0.002868,0.713592
1133,-0.002867,0.716844
1134,-0.002866,0.721723
1135,-0.002865,0.728229
1136,-0.002864,0.729855
1137,-0.002863,0.737986
1138,-0.002862,0.737986
1139,-0.002861,0.741239
1140,-0.00286,0.746118
1141,-0.002859,0.74937
1142,-0.002858,0.755876
1143,-0.002857,0.759128
1144,-0.002856,0.762381
1145,-0.002855,0.765634
1146,-0.002854,0.768886
1147,-0.002853,0.770512
1148,-0.002852,0.777018
1149,-0.002851,0.781897
1150,-0.00285,0.785149
1151,-0.002849,0.788402
1152,-0.002848,0.791654
1153,-0.002847,0.793281
1154,-0.002846,0.796533
1155,-0.002845,0.801412
1156,-0.002844,0.807917
1157,-0.002843,0.809544
1158,-0.002842,0.812796
1159,-0.002841,0.816049
1160,-0.00284,0.817675
1161,-0.002839,0.820928
1162,-0.002838,0.825807
1163,-0.002837,0.830686
1164,-0.002836,0.832312
1165,-0.002835,0.837191
1166,-0.002834,0.837191
1167,-0.002833,0.838817
1168,-0.002832,0.84207
1169,-0.002831,0.846949
1170,-0.00283,0.850201
1171,-0.002829,0.85508
1172,-0.002828,0.85508
1173,-0.002827,0.856706
1174,-0.002826,0.859959
1175,-0.002825,0.863212
1176,-0.002824,0.866464
1177,-0.002823,0.872969
1178,-0.002822,0.872969
1179,-0.002821,0.874596
1180,-0.00282,0.877848
1181,-0.002819,0.877848
1182,-0.002818,0.882727
1183,-0.002817,0.88598
1184,-0.002816,0.889232
1185,-0.002815,0.892485
1186,-0.002814,0.894111
1187,-0.002813,0.895738
1188,-0.002812,0.89899
1189,-0.002811,0.89899
1190,-0.00281,0.902243
1191,-0.002809,0.905495
1192,-0.002808,0.908748
1193,-0.002807,0.910374
1194,-0.002806,0.910374
1195,-0.002805,0.912001
1196,-0.002804,0.915253
1197,-0.002803,0.91688
1198,-0.002802,0.920132
1199,-0.002801,0.923385
1200,-0.0028,0.923385
1201,-0.002799,0.925011
1202,-0.002798,0.926637
1203,-0.002797,0.926637
1204,-0.002796,0.931516
1205,-0.002795,0.934769
1206,-0.002794,0.934769
1207,-0.002793,0.936395
1208,-0.002792,0.936395
1209,-0.002791,0.938021
1210,-0.00279,0.939648
1211,-0.002789,0.9429
1212,-0.002788,0.9429
1213,-0.002787,0.946153
1214,-0.002786,0.944527
1215,-0.002785,0.947779
1216,-0.002784,0.947779
1217,-0.002783,0.951032
1218,-0.002782,0.952658
1219,-0.002781,0.954284
1220,-0.00278,0.954284
1221,-0.002779,0.954284
1222,-0.002778,0.955911
1223,-0.002777,0.955911
1224,-0.002776,0.957537
1225,-0.002775,0.959163
1226,-0.002774,0.96079
1227,-0.002773,0.96079
1228,-0.002772,0.96079
1229,-0.002771,0.96079
1230,-0.00277,0.964042
1231,-0.002769,0.962416
1232,-0.002768,0.967295
1233,-0.002767,0.967295
1234,-0.002766,0.968921
1235,-0.002765,0.965669
1236,-0.002764,0.965669
1237,-0.002763,0.967295
1238,-0.002762,0.970548
1239,-0.002761,0.970548
1240,-0.00276,0.970548
1241,-0.002759,0.970548
1242,-0.002758,0.970548
1243,-0.002757,0.967295
1244,-0.002756,0.967295
1245,-0.002755,0.970548
1246,-0.002754,0.9738
1247,-0.002753,0.9738
1248,-0.002752,0.9738
1249,-0.002751,0.970548
1250,-0.00275,0.970548
1251,-0.002749,0.970548
1252,-0.002748,0.970548
1253,-0.002747,0.9738
1254,-0.002746,0.977053
1255,-0.002745,0.9738
1256,-0.002744,0.968921
1257,-0.002743,0.967295
1258,-0.002742,0.970548
1259,-0.002741,0.968921
1260,-0.00274,0.970548
1261,-0.002739,0.9738
1262,-0.002738,0.970548
1263,-0.002737,0.968921
1264,-0.002736,0.964042
1265,-0.002735,0.967295
1266,-0.002734,0.965669
1267,-0.002733,0.967295
1268,-0.002732,0.968921
1269,-0.002731,0.964042
1270,-0.00273,0.964042
1271,-0.002729,0.964042
1272,-0.002728,0.964042
1273,-0.002727,0.96079
1274,-0.002726,0.96079
1275,-0.002725,0.962416
1276,-0.002724,0.959163
1277,-0.002723,0.959163
1278,-0.002722,0.957537
1279,-0.002721,0.952658
1280,-0.00272,0.955911
1281,-0.002719,0.954284
1282,-0.002718,0.954284
1283,-0.002717,0.954284
1284,-0.002716,0.949406
1285,-0.002715,0.949406
1286,-0.002714,0.946153
1287,-0.002713,0.947779
1288,-0.002712,0.944527
1289,-0.002711,0.9429
1290,-0.00271,0.9429
1291,-0.002709,0.941274
1292,-0.002708,0.938021
1293,-0.002707,0.936395
1294,-0.002706,0.936395
1295,-0.002705,0.936395
1296,-0.002704,0.934769
1297,-0.002703,0.933143
1298,-0.002702,0.92989
1299,-0.002701,0.925011
1300,-0.0027,0.925011
1301,-0.002699,0.923385
1302,-0.002698,0.923385
1303,-0.002697,0.920132
1304,-0.002696,0.918506
1305,-0.002695,0.913627
1306,-0.002694,0.913627
1307,-0.002693,0.910374
1308,-0.002692,0.908748
1309,-0.002691,0.907122
1310,-0.00269,0.905495
1311,-0.002689,0.903869
1312,-0.002688,0.89899
1313,-0.002687,0.895738
1314,-0.002686,0.894111
1315,-0.002685,0.892485
1316,-0.002684,0.890859
1317,-0.002683,0.890859
1318,-0.002682,0.887606
1319,-0.002681,0.882727
1320,-0.00268,0.879475
1321,-0.002679,0.877848
1322,-0.002678,0.874596
1323,-0.002677,0.874596
1324,-0.002676,0.869717
1325,-0.002675,0.866464
1326,-0.002674,0.863212
1327,-0.002673,0.859959
1328,-0.002672,0.858333
1329,-0.002671,0.85508
1330,-0.00267,0.85508
1331,-0.002669,0.850201
1332,-0.002668,0.848575
1333,-0.002667,0.84207
1334,-0.002666,0.838817
1335,-0.002665,0.837191
1336,-0.002664,0.835564
1337,-0.002663,0.833938
1338,-0.002662,0.830686
1339,-0.002661,0.825807
1340,-0.00266,0.820928
1341,-0.002659,0.817675
1342,-0.002658,0.816049
1343,-0.002657,0.812796
1344,-0.002656,0.809544
1345,-0.002655,0.806291
1346,-0.002654,0.803038
1347,-0.002653,0.796533
1348,-0.002652,0.793281
1349,-0.002651,0.790028
1350,-0.00265,0.790028
1351,-0.002649,0.785149
1352,-0.002648,0.781897
1353,-0.002647,0.777018
1354,-0.002646,0.772139
1355,-0.002645,0.768886
1356,-0.002644,0.765634
1357,-0.002643,0.765634
1358,-0.002642,0.759128
1359,-0.002641,0.755876
1360,-0.00264,0.74937
1361,-0.002639,0.746118
1362,-0.002638,0.742865
1363,-0.002637,0.739613
1364,-0.002636,0.73636
1365,-0.002635,0.729855
1366,-0.002634,0.726602
1367,-0.002633,0.72335
1368,-0.002632,0.718471
1369,-0.002631,0.713592
1370,-0.00263,0.710339
1371,-0.002629,0.707087
1372,-0.002628,0.703834
1373,-0.002627,0.700581
1374,-0.002626,0.69245
1375,-0.002625,0.687571
1376,-0.002624,0.684318
1377,-0.002623,0.679439
1378,-0.002622,0.676187
1379,-0.002621,0.676187
1380,-0.00262,0.671308
1381,-0.002619,0.663176
1382,-0.002618,0.656671
1383,-0.002617,0.653419
1384,-0.002616,0.650166
1385,-0.002615,0.646913
1386,-0.002614,0.642035
1387,-0.002613,0.635529
1388,-0.002612,0.632277
1389,-0.002611,0.624145
1390,-0.00261,0.619266
1391,-0.002609,0.616014
1392,-0.002608,0.612761
1393,-0.002607,0.609509
1394,-0.002606,0.60463
1395,-0.002605,0.598124
1396,-0.002604,0.589993
1397,-0.002603,0.58674
1398,-0.002602,0.581861
1399,-0.002601,0.580235
1400,-0.0026,0.57373
1401,-0.002599,0.570477
1402,-0.002598,0.563972
1403,-0.002597,0.555841
1404,-0.002596,0.552588
1405,-0.002595,0.547709
1406,-0.002594,0.54283
1407,-0.002593,0.539578
1408,-0.002592,0.536325
1409,-0.002591,0.52982
1410,-0.00259,0.521688
1411,-0.002589,0.516809
1412,-0.002588,0.510304
1413,-0.002587,0.507051
1414,-0.002586,0.503799
1415,-0.002585,0.49892
1416,-0.002584,0.492415
1417,-0.002583,0.48591
1418,-0.002582,0.479404
1419,-0.002581,0.472899
1420,-0.00258,0.469647
1421,-0.002579,0.466394
1422,-0.002578,0.463141
1423,-0.002577,0.453384
1424,-0.002576,0.450131
1425,-0.002575,0.441999
1426,-0.002574,0.43712
1427,-0.002573,0.433868
1428,-0.002572,0.427363
1429,-0.002571,0.42411
1430,-0.00257,0.417605
1431,-0.002569,0.4111
1432,-0.002568,0.402968
1433,-0.002567,0.399716
1434,-0.002566,0.394837
1435,-0.002565,0.391584
1436,-0.002564,0.383453
1437,-0.002563,0.376947
1438,-0.002562,0.370442
1439,-0.002561,0.363937
1440,-0.00256,0.359058
1441,-0.002559,0.352553
1442,-0.002558,0.350927
1443,-0.002557,0.344421
1444,-0.002556,0.337916
1445,-0.002555,0.331411
1446,-0.002554,0.324906
1447,-0.002553,0.3184
1448,-0.002552,0.311895
1449,-0.002551,0.310269
1450,-0.00255,0.303764
1451,-0.002549,0.297259
1452,-0.002548,0.290753
1453,-0.002547,0.284248
1454,-0.002546,0.276117
1455,-0.002545,0.27449
1456,-0.002544,0.267985
1457,-0.002543,0.263106
1458,-0.002542,0.256601
1459,-0.002541,0.250096
1460,-0.00254,0.241964
1461,-0.002539,0.237085
1462,-0.002538,0.232206
1463,-0.002537,0.227328
1464,-0.002536,0.222449
1465,-0.002535,0.214317
1466,-0.002534,0.207812
1467,-0.002533,0.19968
1468,-0.002532,0.193175
1469,-0.002531,0.189923
1470,-0.00253,0.18667
1471,-0.002529,0.180165
1472,-0.002528,0.172033
1473,-0.002527,0.165528
1474,-0.002526,0.160649
1475,-0.002525,0.154144
1476,-0.002524,0.147639
1477,-0.002523,0.144386
1478,-0.002522,0.137881
1479,-0.002521,0.131376
1480,-0.00252,0.121618
1481,-0.002519,0.116739
1482,-0.002518,0.110234
1483,-0.002517,0.105355
1484,-0.002516,0.100476
1485,-0.002515,0.0939708
1486,-0.002514,0.0890919
1487,-0.002513,0.0825867
1488,-0.002512,0.0728289
1489,-0.002511,0.06795
1490,-0.00251,0.0630711
1491,-0.002509,0.0581922
1492,-0.002508,0.0533133
1493,-0.002507,0.0468081
1494,-0.002506,0.0403028
1495,-0.002505,0.0321713
1496,-0.002504,0.0256661
1497,-0.002503,0.0207872
1498,-0.002502,0.0175346
1499,-0.002501,0.00777681
1500,-0.0025,0.0028979
1501,-0.002499,-0.00360731
1502,-0.002498,-0.0101125
1503,-0.002497,-0.0149914
1504,-0.002496,-0.0214966
1505,-0.002495,-0.0280018
1506,-0.002494,-0.034507
1507,-0.002493,-0.0377596
1508,-0.002492,-0.0475175
1509,-0.002491,-0.0523964
1510,-0.00249,-0.0572753
1511,-0.002489,-0.0637805
1512,-0.002488,-0.0702857
1513,-0.002487,-0.0751646
1514,-0.002486,-0.0816698
1515,-0.002485,-0.088175
1516,-0.002484,-0.0946802
1517,-0.002483,-0.101185
1518,-0.002482,-0.106064
1519,-0.002481,-0.11257
1520,-0.00248,-0.119075
1521,-0.002479,-0.127206
1522,-0.002478,-0.132085
1523,-0.002477,-0.13859
1524,-0.002476,-0.141843
1525,-0.002475,-0.148348
1526,-0.002474,-0.154853
1527,-0.002473,-0.161359
1528,-0.002472,-0.167864
1529,-0.002471,-0.174369
1530,-0.00247,-0.179248
1531,-0.002469,-0.187379
1532,-0.002468,-0.190632
1533,-0.002467,-0.197137
1534,-0.002466,-0.203642
1535,-0.002465,-0.210148
1536,-0.002464,-0.215027
1537,-0.002463,-0.219905
1538,-0.002462,-0.226411
1539,-0.002461,-0.232916
1540,-0.00246,-0.239421
1541,-0.002459,-0.247553
1542,-0.002458,-0.250805
1543,-0.002457,-0.25731
1544,-0.002456,-0.263816
1545,-0.002455,-0.267068
1546,-0.002454,-0.276826
1547,-0.002453,-0.281705
1548,-0.002452,-0.284958
1549,-0.002451,-0.291463
1550,-0.00245,-0.297968
1551,-0.002449,-0.302847
1552,-0.002448,-0.309352
1553,-0.002447,-0.315857
1554,-0.002446,-0.322362
1555,-0.002445,-0.327241
1556,-0.002444,-0.33212
1557,-0.002443,-0.338625
1558,-0.002442,-0.343504
1559,-0.002441,-0.35001
1560,-0.00244,-0.356515
1561,-0.002439,-0.359767
1562,-0.002438,-0.367899
1563,-0.002437,-0.374404
1564,-0.002436,-0.377657
1565,-0.002435,-0.384162
1566,-0.002434,-0.390667
1567,-0.002433,-0.395546
1568,-0.002432,-0.402051
1569,-0.002431,-0.40693
1570,-0.00243,-0.413435
1571,-0.002429,-0.418314
1572,-0.002428,-0.423193
1573,-0.002427,-0.428072
1574,-0.002426,-0.434577
1575,-0.002425,-0.441083
1576,-0.002424,-0.444335
1577,-0.002423,-0.45084
1578,-0.002422,-0.455719
1579,-0.002421,-0.460598
1580,-0.00242,-0.467103
1581,-0.002419,-0.473609
1582,-0.002418,-0.480114
1583,-0.002417,-0.48174
1584,-0.002416,-0.489872
1585,-0.002415,-0.491498
1586,-0.002414,-0.498003
1587,-0.002413,-0.504508
1588,-0.002412,-0.509387
1589,-0.002411,-0.515892
1590,-0.00241,-0.519145
1591,-0.002409,-0.524024
1592,-0.002408,-0.527277
1593,-0.002407,-0.533782
1594,-0.002406,-0.540287
1595,-0.002405,-0.545166
1596,-0.002404,-0.553297
1597,-0.002403,-0.55655
1598,-0.002402,-0.559803
1599,-0.002401,-0.564681
1600,-0.0024,-0.567934
1601,-0.002399,-0.574439
1602,-0.002398,-0.582571
1603,-0.002397,-0.585823
1604,-0.002396,-0.590702
1605,-0.002395,-0.593955
1606,-0.002394,-0.597207
1607,-0.002393,-0.603713
1608,-0.002392,-0.606965
1609,-0.002391,-0.61347
1610,-0.00239,-0.619976
1611,-0.002389,-0.623228
1612,-0.002388,-0.626481
1613,-0.002387,-0.63136
1614,-0.002386,-0.636239
1615,-0.002385,-0.639491
1616,-0.002384,-0.647623
1617,-0.002383,-0.652502
1618,-0.002382,-0.655754
1619,-0.002381,-0.659007
1620,-0.00238,-0.66226
1621,-0.002379,-0.667138
1622,-0.002378,-0.673644
1623,-0.002377,-0.680149
1624,-0.002376,-0.683402
1625,-0.002375,-0.686654
1626,-0.002374,-0.68828
1627,-0.002373,-0.694786
1628,-0.002372,-0.698038
1629,-0.002371,-0.701291
1630,-0.00237,-0.707796
1631,-0.002369,-0.714301
1632,-0.002368,-0.715928
1633,-0.002367,-0.71918
1634,-0.002366,-0.722433
1635,-0.002365,-0.727312
1636,-0.002364,-0.730564
1637,-0.002363,-0.735443
1638,-0.002362,-0.741948
1639,-0.002361,-0.743575
1640,-0.00236,-0.748454
1641,-0.002359,-0.75008
1642,-0.002358,-0.754959
1643,-0.002357,-0.761464
1644,-0.002356,-0.76309
1645,-0.002355,-0.767969
1646,-0.002354,-0.771222
1647,-0.002353,-0.774474
1648,-0.002352,-0.777727
1649,-0.002351,-0.78098
1650,-0.00235,-0.787485
1651,-0.002349,-0.790737
1652,-0.002348,-0.79399
1653,-0.002347,-0.797243
1654,-0.002346,-0.797243
1655,-0.002345,-0.802122
1656,-0.002344,-0.807
1657,-0.002343,-0.810253
1658,-0.002342,-0.815132
1659,-0.002341,-0.818385
1660,-0.00234,-0.820011
1661,-0.002339,-0.823263
1662,-0.002338,-0.826516
1663,-0.002337,-0.828142
1664,-0.002336,-0.833021
1665,-0.002335,-0.839526
1666,-0.002334,-0.8379
1667,-0.002333,-0.842779
1668,-0.002332,-0.844405
1669,-0.002331,-0.846032
1670,-0.00233,-0.852537
1671,-0.002329,-0.855789
1672,-0.002328,-0.859042
1673,-0.002327,-0.860668
1674,-0.002326,-0.860668
1675,-0.002325,-0.863921
1676,-0.002324,-0.8688
1677,-0.002323,-0.872053
1678,-0.002322,-0.875305
1679,-0.002321,-0.878558
1680,-0.00232,-0.880184
1681,-0.002319,-0.883437
1682,-0.002318,-0.883437
1683,-0.002317,-0.886689
1684,-0.002316,-0.889942
1685,-0.002315,-0.893194
1686,-0.002314,-0.896447
1687,-0.002313,-0.898073
1688,-0.002312,-0.8997
1689,-0.002311,-0.901326
1690,-0.00231,-0.901326
1691,-0.002309,-0.909457
1692,-0.002308,-0.907831
1693,-0.002307,-0.91271
1694,-0.002306,-0.911084
1695,-0.002305,-0.914336
1696,-0.002304,-0.915963
1697,-0.002303,-0.919215
1698,-0.002302,-0.922468
1699,-0.002301,-0.924094
1700,-0.0023,-0.925721
1701,-0.002299,-0.925721
1702,-0.002298,-0.927347
1703,-0.002297,-0.928973
1704,-0.002296,-0.933852
1705,-0.002295,-0.935478
1706,-0.002294,-0.937105
1707,-0.002293,-0.938731
1708,-0.002292,-0.937105
1709,-0.002291,-0.938731
1710,-0.00229,-0.940357
1711,-0.002289,-0.94361
1712,-0.002288,-0.946862
1713,-0.002287,-0.946862
1714,-0.002286,-0.948489
1715,-0.002285,-0.948489
1716,-0.002284,-0.948489
1717,-0.002283,-0.950115
1718,-0.002282,-0.953368
1719,-0.002281,-0.954994
1720,-0.00228,-0.95662
1721,-0.002279,-0.954994
1722,-0.002278,-0.958247
1723,-0.002277,-0.959873
1724,-0.002276,-0.959873
1725,-0.002275,-0.959873
1726,-0.002274,-0.963125
1727,-0.002273,-0.963125
1728,-0.002272,-0.963125
1729,-0.002271,-0.963125
1730,-0.00227,-0.964752
1731,-0.002269,-0.964752
1732,-0.002268,-0.966378
1733,-0.002267,-0.968004
1734,-0.002266,-0.968004
1735,-0.002265,-0.968004
1736,-0.002264,-0.968004
1737,-0.002263,-0.969631
1738,-0.002262,-0.971257
1739,-0.002261,-0.971257
1740,-0.00226,-0.971257
1741,-0.002259,-0.969631
1742,-0.002258,-0.972883
1743,-0.002257,-0.971257
1744,-0.002256,-0.971257
1745,-0.002255,-0.972883
1746,-0.002254,-0.972883
1747,-0.002253,-0.97451
1748,-0.002252,-0.97451
1749,-0.002251,-0.97451
1750,-0.00225,-0.97451
1751,-0.002249,-0.97451
1752,-0.002248,-0.97451
1753,-0.002247,-0.972883
1754,-0.002246,-0.97451
1755,-0.002245,-0.97451
1756,-0.002244,-0.972883
1757,-0.002243,-0.971257
1758,-0.002242,-0.969631
1759,-0.002241,-0.972883
1760,-0.00224,-0.972883
1761,-0.002239,-0.972883
1762,-0.002238,-0.971257
1763,-0.002237,-0.971257
1764,-0.002236,-0.969631
1765,-0.002235,-0.966378
1766,-0.002234,-0.968004
1767,-0.002233,-0.969631
1768,-0.002232,-0.969631
1769,-0.002231,-0.966378
1770,-0.00223,-0.966378
1771,-0.002229,-0.966378
1772,-0.002228,-0.964752
1773,-0.002227,-0.961499
1774,-0.002226,-0.963125
1775,-0.002225,-0.963125
1776,-0.002224,-0.959873
1777,-0.002223,-0.959873
1778,-0.002222,-0.959873
1779,-0.002221,-0.954994
1780,-0.00222,-0.958247
1781,-0.002219,-0.95662
1782,-0.002218,-0.954994
1783,-0.002217,-0.954994
1784,-0.002216,-0.950115
1785,-0.002215,-0.948489
1786,-0.002214,-0.945236
1787,-0.002213,-0.948489
1788,-0.002212,-0.945236
1789,-0.002211,-0.946862
1790,-0.00221,-0.94361
1791,-0.002209,-0.941984
1792,-0.002208,-0.938731
1793,-0.002207,-0.938731
1794,-0.002206,-0.937105
1795,-0.002205,-0.937105
1796,-0.002204,-0.937105
1797,-0.002203,-0.933852
1798,-0.002202,-0.932226
1799,-0.002201,-0.927347
1800,-0.0022,-0.925721
1801,-0.002199,-0.924094
1802,-0.002198,-0.922468
1803,-0.002197,-0.922468
1804,-0.002196,-0.920842
1805,-0.002195,-0.917589
1806,-0.002194,-0.914336
1807,-0.002193,-0.91271
1808,-0.002192,-0.909457
1809,-0.002191,-0.909457
1810,-0.00219,-0.907831
1811,-0.002189,-0.904579
1812,-0.002188,-0.901326
1813,-0.002187,-0.8997
1814,-0.002186,-0.896447
1815,-0.002185,-0.893194
1816,-0.002184,-0.893194
1817,-0.002183,-0.889942
1818,-0.002182,-0.888316
1819,-0.002181,-0.885063
1820,-0.00218,-0.88181
1821,-0.002179,-0.878558
1822,-0.002178,-0.876931
1823,-0.002177,-0.875305
1824,-0.002176,-0.872053
1825,-0.002175,-0.8688
1826,-0.002174,-0.865547
1827,-0.002173,-0.862295
1828,-0.002172,-0.860668
1829,-0.002171,-0.855789
1830,-0.00217,-0.855789
1831,-0.002169,-0.852537
1832,-0.002168,-0.846032
1833,-0.002167,-0.844405
1834,-0.002166,-0.841153
1835,-0.002165,-0.839526
1836,-0.002164,-0.8379
1837,-0.002163,-0.834648
1838,-0.002162,-0.831395
1839,-0.002161,-0.82489
1840,-0.00216,-0.823263
1841,-0.002159,-0.820011
1842,-0.002158,-0.815132
1843,-0.002157,-0.815132
1844,-0.002156,-0.811879
1845,-0.002155,-0.807
1846,-0.002154,-0.802122
1847,-0.002153,-0.798869
1848,-0.002152,-0.795616
1849,-0.002151,-0.79399
1850,-0.00215,-0.789111
1851,-0.002149,-0.785859
1852,-0.002148,-0.782606
1853,-0.002147,-0.776101
1854,-0.002146,-0.774474
1855,-0.002145,-0.769596
1856,-0.002144,-0.769596
1857,-0.002143,-0.766343
1858,-0.002142,-0.759838
1859,-0.002141,-0.754959
1860,-0.00214,-0.75008
1861,-0.002139,-0.746827
1862,-0.002138,-0.743575
1863,-0.002137,-0.740322
1864,-0.002136,-0.737069
1865,-0.002135,-0.732191
1866,-0.002134,-0.727312
1867,-0.002133,-0.724059
1868,-0.002132,-0.717554
1869,-0.002131,-0.714301
1870,-0.00213,-0.712675
1871,-0.002129,-0.707796
1872,-0.002128,-0.702917
1873,-0.002127,-0.698038
1874,-0.002126,-0.694786
1875,-0.002125,-0.68828
1876,-0.002124,-0.686654
1877,-0.002123,-0.681775
1878,-0.002122,-0.680149
1879,-0.002121,-0.672017
1880,-0.00212,-0.668765
1881,-0.002119,-0.66226
1882,-0.002118,-0.659007
1883,-0.002117,-0.654128
1884,-0.002116,-0.654128
1885,-0.002115,-0.647623
1886,-0.002114,-0.642744
1887,-0.002113,-0.634612
1888,-0.002112,-0.63136
1889,-0.002111,-0.626481
1890,-0.00211,-0.623228
1891,-0.002109,-0.619976
1892,-0.002108,-0.61347
1893,-0.002107,-0.606965
1894,-0.002106,-0.603713
1895,-0.002105,-0.597207
1896,-0.002104,-0.593955
1897,-0.002103,-0.590702
1898,-0.002102,-0.584197
1899,-0.002101,-0.579318
1900,-0.0021,-0.576066
1901,-0.002099,-0.567934
1902,-0.002098,-0.564681
1903,-0.002097,-0.558176
1904,-0.002096,-0.554924
1905,-0.002095,-0.551671
1906,-0.002094,-0.54354
1907,-0.002093,-0.538661
1908,-0.002092,-0.535408
1909,-0.002091,-0.527277
1910,-0.00209,-0.52565
1911,-0.002089,-0.517519
1912,-0.002088,-0.515892
1913,-0.002087,-0.507761
1914,-0.002086,-0.504508
1915,-0.002085,-0.498003
1916,-0.002084,-0.491498
1917,-0.002083,-0.488245
1918,-0.002082,-0.484993
1919,-0.002081,-0.476861
1920,-0.00208,-0.470356
1921,-0.002079,-0.465477
1922,-0.002078,-0.460598
1923,-0.002077,-0.455719
1924,-0.002076,-0.45084
1925,-0.002075,-0.445961
1926,-0.002074,-0.439456
1927,-0.002073,-0.434577
1928,-0.002072,-0.428072
1929,-0.002071,-0.421567
1930,-0.00207,-0.418314
1931,-0.002069,-0.411809
1932,-0.002068,-0.40693
1933,-0.002067,-0.400425
1934,-0.002066,-0.395546
1935,-0.002065,-0.389041
1936,-0.002064,-0.384162
1937,-0.002063,-0.377657
1938,-0.002062,-0.374404
1939,-0.002061,-0.367899
1940,-0.00206,-0.361394
1941,-0.002059,-0.353262
1942,-0.002058,-0.35001
1943,-0.002057,-0.343504
1944,-0.002056,-0.338625
1945,-0.002055,-0.333747
1946,-0.002054,-0.327241
1947,-0.002053,-0.320736
1948,-0.002052,-0.314231
1949,-0.002051,-0.307726
1950,-0.00205,-0.304473
1951,-0.002049,-0.299594
1952,-0.002048,-0.293089
1953,-0.002047,-0.286584
1954,-0.002046,-0.281705
1955,-0.002045,-0.271947
1956,-0.002044,-0.268695
1957,-0.002043,-0.263816
1958,-0.002042,-0.25731
1959,-0.002041,-0.250805
1960,-0.00204,-0.2443
1961,-0.002039,-0.239421
1962,-0.002038,-0.232916
1963,-0.002037,-0.226411
1964,-0.002036,-0.223158
1965,-0.002035,-0.216653
1966,-0.002034,-0.210148
1967,-0.002033,-0.203642
1968,-0.002032,-0.195511
1969,-0.002031,-0.190632
1970,-0.00203,-0.187379
1971,-0.002029,-0.180874
1972,-0.002028,-0.174369
1973,-0.002027,-0.167864
1974,-0.002026,-0.161359
1975,-0.002025,-0.154853
1976,-0.002024,-0.149974
1977,-0.002023,-0.143469
1978,-0.002022,-0.13859
1979,-0.002021,-0.132085
1980,-0.00202,-0.12558
1981,-0.002019,-0.119075
1982,-0.002018,-0.11257
1983,-0.002017,-0.107691
1984,-0.002016,-0.101185
1985,-0.002015,-0.0963065
1986,-0.002014,-0.0898013
1987,-0.002013,-0.0832961
1988,-0.002012,-0.0767909
1989,-0.002011,-0.0702857
1990,-0.00201,-0.0654068
1991,-0.002009,-0.0589016
1992,-0.002008,-0.0523964
1993,-0.002007,-0.0491438
1994,-0.002006,-0.0377596
1995,-0.002005,-0.034507
1996,-0.002004,-0.0280018
1997,-0.002003,-0.0231229
1998,-0.002002,-0.0166177
1999,-0.002001,-0.0101125
2000,-0.002,-0.00360731
2001,-0.001999,0.0028979
2002,-0.001998,0.00940311
2003,-0.001997,0.0159083
2004,-0.001996,0.0191609
2005,-0.001995,0.0256661
2006,-0.001994,0.0321713
2007,-0.001993,0.0386765
2008,-0.001992,0.0451818
2009,-0.001991,0.0500607
2010,-0.00199,0.0581922
2011,-0.001989,0.0630711
2012,-0.001988,0.0695763
2013,-0.001987,0.0760815
2014,-0.001986,0.0825867
2015,-0.001985,0.0890919
2016,-0.001984,0.0939708
2017,-0.001983,0.100476
2018,-0.001982,0.105355
2019,-0.001981,0.11186
2020,-0.00198,0.115113
2021,-0.001979,0.121618
2022,-0.001978,0.131376
2023,-0.001977,0.137881
2024,-0.001976,0.141134
2025,-0.001975,0.149265
2026,-0.001974,0.154144
2027,-0.001973,0.160649
2028,-0.001972,0.165528
2029,-0.001971,0.17366
2030,-0.00197,0.180165
2031,-0.001969,0.18667
2032,-0.001968,0.189923
2033,-0.001967,0.196428
2034,-0.001966,0.201307
2035,-0.001965,0.209438
2036,-0.001964,0.214317
2037,-0.001963,0.222449
2038,-0.001962,0.225701
2039,-0.001961,0.232206
2040,-0.00196,0.238712
2041,-0.001959,0.245217
2042,-0.001958,0.251722
2043,-0.001957,0.256601
2044,-0.001956,0.263106
2045,-0.001955,0.269611
2046,-0.001954,0.276117
2047,-0.001953,0.279369
2048,-0.001952,0.284248
2049,-0.001951,0.29238
2050,-0.00195,0.298885
2051,-0.001949,0.30539
2052,-0.001948,0.308643
2053,-0.001947,0.316774
2054,-0.001946,0.320027
2055,-0.001945,0.324906
2056,-0.001944,0.331411
2057,-0.001943,0.339542
2058,-0.001942,0.342795
2059,-0.001941,0.3493
2060,-0.00194,0.354179
2061,-0.001939,0.359058
2062,-0.001938,0.365563
2063,-0.001937,0.372068
2064,-0.001936,0.378574
2065,-0.001935,0.383453
2066,-0.001934,0.389958
2067,-0.001933,0.394837
2068,-0.001932,0.399716
2069,-0.001931,0.406221
2070,-0.00193,0.412726
2071,-0.001929,0.415979
2072,-0.001928,0.42411
2073,-0.001927,0.427363
2074,-0.001926,0.432242
2075,-0.001925,0.438747
2076,-0.001924,0.445252
2077,-0.001923,0.448505
2078,-0.001922,0.456636
2079,-0.001921,0.461515
2080,-0.00192,0.466394
2081,-0.001919,0.469647
2082,-0.001918,0.474525
2083,-0.001917,0.482657
2084,-0.001916,0.487536
2085,-0.001915,0.492415
2086,-0.001914,0.497294
2087,-0.001913,0.503799
2088,-0.001912,0.507051
2089,-0.001911,0.513557
2090,-0.00191,0.518436
2091,-0.001909,0.521688
2092,-0.001908,0.52982
2093,-0.001907,0.536325
2094,-0.001906,0.537951
2095,-0.001905,0.54283
2096,-0.001904,0.549335
2097,-0.001903,0.554214
2098,-0.001902,0.560719
2099,-0.001901,0.563972
2100,-0.0019,0.568851
2101,-0.001899,0.575356
2102,-0.001898,0.578609
2103,-0.001897,0.581861
2104,-0.001896,0.588367
2105,-0.001895,0.593246
2106,-0.001894,0.599751
2107,-0.001893,0.603003
2108,-0.001892,0.606256
2109,-0.001891,0.612761
2110,-0.00189,0.61764
2111,-0.001889,0.620893
2112,-0.001888,0.625772
2113,-0.001887,0.632277
2114,-0.001886,0.637156
2115,-0.001885,0.640408
2116,-0.001884,0.645287
2117,-0.001883,0.64854
2118,-0.001882,0.651792
2119,-0.001881,0.658298
2120,-0.00188,0.664803
2121,-0.001879,0.668055
2122,-0.001878,0.671308
2123,-0.001877,0.674561
2124,-0.001876,0.681066
2125,-0.001875,0.685945
2126,-0.001874,0.689197
2127,-0.001873,0.694076
2128,-0.001872,0.698955
2129,-0.001871,0.702208
2130,-0.00187,0.70546
2131,-0.001869,0.710339
2132,-0.001868,0.715218
2133,-0.001867,0.720097
2134,-0.001866,0.72335
2135,-0.001865,0.726602
2136,-0.001864,0.729855
2137,-0.001863,0.734734
2138,-0.001862,0.737986
2139,-0.001861,0.742865
2140,-0.00186,0.747744
2141,-0.001859,0.750997
2142,-0.001858,0.754249
2143,-0.001857,0.757502
2144,-0.001856,0.762381
2145,-0.001855,0.765634
2146,-0.001854,0.770512
2147,-0.001853,0.773765
2148,-0.001852,0.777018
2149,-0.001851,0.78027
2150,-0.00185,0.783523
2151,-0.001849,0.786775
2152,-0.001848,0.790028
2153,-0.001847,0.796533
2154,-0.001846,0.799786
2155,-0.001845,0.804665
2156,-0.001844,0.804665
2157,-0.001843,0.807917
2158,-0.001842,0.81117
2159,-0.001841,0.816049
2160,-0.00184,0.819301
2161,-0.001839,0.822554
2162,-0.001838,0.827433
2163,-0.001837,0.827433
2164,-0.001836,0.830686
2165,-0.001835,0.833938
2166,-0.001834,0.838817
2167,-0.001833,0.84207
2168,-0.001832,0.845322
2169,-0.001831,0.848575
2170,-0.00183,0.848575
2171,-0.001829,0.850201
2172,-0.001828,0.85508
2173,-0.001827,0.858333
2174,-0.001826,0.863212
2175,-0.001825,0.868091
2176,-0.001824,0.866464
2177,-0.001823,0.869717
2178,-0.001822,0.871343
2179,-0.001821,0.874596
2180,-0.00182,0.877848
2181,-0.001819,0.882727
2182,-0.001818,0.88598
2183,-0.001817,0.88598
2184,-0.001816,0.887606
2185,-0.001815,0.889232
2186,-0.001814,0.892485
2187,-0.001813,0.895738
2188,-0.001812,0.89899
2189,-0.001811,0.900617
2190,-0.00181,0.900617
2191,-0.001809,0.903869
2192,-0.001808,0.907122
2193,-0.001807,0.910374
2194,-0.001806,0.912001
2195,-0.001805,0.915253
2196,-0.001804,0.915253
2197,-0.001803,0.918506
2198,-0.001802,0.918506
2199,-0.001801,0.921758
2200,-0.0018,0.923385
2201,-0.001799,0.926637
2202,-0.001798,0.92989
2203,-0.001797,0.92989
2204,-0.001796,0.933143
2205,-0.001795,0.92989
2206,-0.001794,0.934769
2207,-0.001793,0.936395
2208,-0.001792,0.936395
2209,-0.001791,0.941274
2210,-0.00179,0.941274
2211,-0.001789,0.9429
2212,-0.001788,0.9429
2213,-0.001787,0.944527
2214,-0.001786,0.9429
2215,-0.001785,0.949406
2216,-0.001784,0.949406
2217,-0.001783,0.952658
2218,-0.001782,0.952658
2219,-0.001781,0.952658
2220,-0.00178,0.954284
2221,-0.001779,0.954284
2222,-0.001778,0.957537
2223,-0.001777,0.959163
2224,-0.001776,0.959163
2225,-0.001775,0.96079
2226,-0.001774,0.959163
2227,-0.001773,0.959163
2228,-0.001772,0.962416
2229,-0.001771,0.964042
2230,-0.00177,0.964042
2231,-0.001769,0.964042
2232,-0.001768,0.965669
2233,-0.001767,0.965669
2234,-0.001766,0.967295
2235,-0.001765,0.964042
2236,-0.001764,0.967295
2237,-0.001763,0.970548
2238,-0.001762,0.970548
2239,-0.001761,0.970548
2240,-0.00176,0.968921
2241,-0.001759,0.968921
2242,-0.001758,0.968921
2243,-0.001757,0.968921
2244,-0.001756,0.968921
2245,-0.001755,0.972174
2246,-0.001754,0.972174
2247,-0.001753,0.972174
2248,-0.001752,0.972174
2249,-0.001751,0.972174
2250,-0.00175,0.972174
2251,-0.001749,0.972174
2252,-0.001748,0.9738
2253,-0.001747,0.9738
2254,-0.001746,0.9738
2255,-0.001745,0.972174
2256,-0.001744,0.968921
2257,-0.001743,0.970548
2258,-0.001742,0.970548
2259,-0.001741,0.970548
2260,-0.00174,0.972174
2261,-0.001739,0.968921
2262,-0.001738,0.968921
2263,-0.001737,0.970548
2264,-0.001736,0.967295
2265,-0.001735,0.967295
2266,-0.001734,0.967295
2267,-0.001733,0.967295
2268,-0.001732,0.967295
2269,-0.001731,0.964042
2270,-0.00173,0.964042
2271,-0.001729,0.964042
2272,-0.001728,0.964042
2273,-0.001727,0.96079
2274,-0.001726,0.96079
2275,-0.001725,0.96079
2276,-0.001724,0.957537
2277,-0.001723,0.957537
2278,-0.001722,0.959163
2279,-0.001721,0.955911
2280,-0.00172,0.955911
2281,-0.001719,0.955911
2282,-0.001718,0.952658
2283,-0.001717,0.952658
2284,-0.001716,0.949406
2285,-0.001715,0.949406
2286,-0.001714,0.947779
2287,-0.001713,0.947779
2288,-0.001712,0.944527
2289,-0.001711,0.944527
2290,-0.00171,0.941274
2291,-0.001709,0.941274
2292,-0.001708,0.938021
2293,-0.001707,0.938021
2294,-0.001706,0.936395
2295,-0.001705,0.934769
2296,-0.001704,0.934769
2297,-0.001703,0.92989
2298,-0.001702,0.931516
2299,-0.001701,0.928264
2300,-0.0017,0.925011
2301,-0.001699,0.925011
2302,-0.001698,0.921758
2303,-0.001697,0.920132
2304,-0.001696,0.91688
2305,-0.001695,0.915253
2306,-0.001694,0.913627
2307,-0.001693,0.913627
2308,-0.001692,0.910374
2309,-0.001691,0.907122
2310,-0.00169,0.903869
2311,-0.001689,0.903869
2312,-0.001688,0.900617
2313,-0.001687,0.89899
2314,-0.001686,0.895738
2315,-0.001685,0.892485
2316,-0.001684,0.890859
2317,-0.001683,0.887606
2318,-0.001682,0.884354
2319,-0.001681,0.884354
2320,-0.00168,0.881101
2321,-0.001679,0.877848
2322,-0.001678,0.874596
2323,-0.001677,0.871343
2324,-0.001676,0.869717
2325,-0.001675,0.866464
2326,-0.001674,0.864838
2327,-0.001673,0.861585
2328,-0.001672,0.861585
2329,-0.001671,0.856706
2330,-0.00167,0.853454
2331,-0.001669,0.848575
2332,-0.001668,0.845322
2333,-0.001667,0.843696
2334,-0.001666,0.84207
2335,-0.001665,0.838817
2336,-0.001664,0.835564
2337,-0.001663,0.832312
2338,-0.001662,0.829059
2339,-0.001661,0.82418
2340,-0.00166,0.822554
2341,-0.001659,0.819301
2342,-0.001658,0.816049
2343,-0.001657,0.812796
2344,-0.001656,0.807917
2345,-0.001655,0.804665
2346,-0.001654,0.801412
2347,-0.001653,0.79816
2348,-0.001652,0.794907
2349,-0.001651,0.791654
2350,-0.00165,0.790028
2351,-0.001649,0.783523
2352,-0.001648,0.78027
2353,-0.001647,0.777018
2354,-0.001646,0.773765
2355,-0.001645,0.770512
2356,-0.001644,0.765634
2357,-0.001643,0.762381
2358,-0.001642,0.757502
2359,-0.001641,0.754249
2360,-0.00164,0.750997
2361,-0.001639,0.747744
2362,-0.001638,0.742865
2363,-0.001637,0.739613
2364,-0.001636,0.734734
2365,-0.001635,0.729855
2366,-0.001634,0.728229
2367,-0.001633,0.724976
2368,-0.001632,0.720097
2369,-0.001631,0.716844
2370,-0.00163,0.710339
2371,-0.001629,0.70546
2372,-0.001628,0.702208
2373,-0.001627,0.698955
2374,-0.001626,0.695702
2375,-0.001625,0.69245
2376,-0.001624,0.685945
2377,-0.001623,0.679439
2378,-0.001622,0.676187
2379,-0.001621,0.669682
2380,-0.00162,0.668055
2381,-0.001619,0.663176
2382,-0.001618,0.659924
2383,-0.001617,0.653419
2384,-0.001616,0.650166
2385,-0.001615,0.643661
2386,-0.001614,0.640408
2387,-0.001613,0.633903
2388,-0.001612,0.632277
2389,-0.001611,0.629024
2390,-0.00161,0.622519
2391,-0.001609,0.616014
2392,-0.001608,0.612761
2393,-0.001607,0.606256
2394,-0.001606,0.603003
2395,-0.001605,0.599751
2396,-0.001604,0.593246
2397,-0.001603,0.589993
2398,-0.001602,0.583488
2399,-0.001601,0.576982
2400,-0.0016,0.572104
2401,-0.001599,0.568851
2402,-0.001598,0.565598
2403,-0.001597,0.560719
2404,-0.001596,0.554214
2405,-0.001595,0.547709
2406,-0.001594,0.541204
2407,-0.001593,0.539578
2408,-0.001592,0.533072
2409,-0.001591,0.52982
2410,-0.00159,0.526567
2411,-0.001589,0.515183
2412,-0.001588,0.51193
2413,-0.001587,0.507051
2414,-0.001586,0.502173
2415,-0.001585,0.49892
2416,-0.001584,0.492415
2417,-0.001583,0.487536
2418,-0.001582,0.481031
2419,-0.001581,0.472899
2420,-0.00158,0.471273
2421,-0.001579,0.464768
2422,-0.001578,0.461515
2423,-0.001577,0.456636
2424,-0.001576,0.448505
2425,-0.001575,0.445252
2426,-0.001574,0.438747
2427,-0.001573,0.432242
2428,-0.001572,0.427363
2429,-0.001571,0.422484
2430,-0.00157,0.419231
2431,-0.001569,0.412726
2432,-0.001568,0.404594
2433,-0.001567,0.398089
2434,-0.001566,0.39321
2435,-0.001565,0.388331
2436,-0.001564,0.383453
2437,-0.001563,0.3802
2438,-0.001562,0.372068
2439,-0.001561,0.365563
2440,-0.00156,0.359058
2441,-0.001559,0.352553
2442,-0.001558,0.347674
2443,-0.001557,0.342795
2444,-0.001556,0.339542
2445,-0.001555,0.331411
2446,-0.001554,0.326532
2447,-0.001553,0.320027
2448,-0.001552,0.313522
2449,-0.001551,0.310269
2450,-0.00155,0.303764
2451,-0.001549,0.298885
2452,-0.001548,0.294006
2453,-0.001547,0.284248
2454,-0.001546,0.279369
2455,-0.001545,0.27449
2456,-0.001544,0.267985
2457,-0.001543,0.263106
2458,-0.001542,0.256601
2459,-0.001541,0.250096
2460,-0.00154,0.243591
2461,-0.001539,0.237085
2462,-0.001538,0.232206
2463,-0.001537,0.227328
2464,-0.001536,0.222449
2465,-0.001535,0.215943
2466,-0.001534,0.209438
2467,-0.001533,0.201307
2468,-0.001532,0.194802
2469,-0.001531,0.188296
2470,-0.00153,0.18667
2471,-0.001529,0.180165
2472,-0.001528,0.17366
2473,-0.001527,0.163902
2474,-0.001526,0.160649
2475,-0.001525,0.152518
2476,-0.001524,0.146012
2477,-0.001523,0.14276
2478,-0.001522,0.137881
2479,-0.001521,0.131376
2480,-0.00152,0.124871
2481,-0.001519,0.118365
2482,-0.001518,0.11186
2483,-0.001517,0.103729
2484,-0.001516,0.100476
2485,-0.001515,0.0955971
2486,-0.001514,0.0874656
2487,-0.001513,0.0809604
2488,-0.001512,0.0760815
2489,-0.001511,0.0695763
2490,-0.00151,0.0630711
2491,-0.001509,0.0598185
2492,-0.001508,0.051687
2493,-0.001507,0.0451818
2494,-0.001506,0.0403028
2495,-0.001505,0.0337976
2496,-0.001504,0.0272924
2497,-0.001503,0.0207872
2498,-0.001502,0.014282
2499,-0.001501,0.00777681
2500,-0.0015,0.0012716
2501,-0.001499,-0.00523361
2502,-0.001498,-0.00848621
2503,-0.001497,-0.0149914
2504,-0.001496,-0.0214966
2505,-0.001495,-0.0280018
2506,-0.001494,-0.034507
2507,-0.001493,-0.0410122
2508,-0.001492,-0.0442649
2509,-0.001491,-0.0507701
2510,-0.00149,-0.0572753
2511,-0.001489,-0.0637805
2512,-0.001488,-0.0702857
2513,-0.001487,-0.0767909
2514,-0.001486,-0.0832961
2515,-0.001485,-0.088175
2516,-0.001484,-0.0946802
2517,-0.001483,-0.101185
2518,-0.001482,-0.106064
2519,-0.001481,-0.11257
2520,-0.00148,-0.119075
2521,-0.001479,-0.128833
2522,-0.001478,-0.132085
2523,-0.001477,-0.13859
2524,-0.001476,-0.141843
2525,-0.001475,-0.151601
2526,-0.001474,-0.15648
2527,-0.001473,-0.162985
2528,-0.001472,-0.167864
2529,-0.001471,-0.174369
2530,-0.00147,-0.179248
2531,-0.001469,-0.187379
2532,-0.001468,-0.190632
2533,-0.001467,-0.197137
2534,-0.001466,-0.206895
2535,-0.001465,-0.210148
2536,-0.001464,-0.215027
2537,-0.001463,-0.221532
2538,-0.001462,-0.228037
2539,-0.001461,-0.232916
2540,-0.00146,-0.239421
2541,-0.001459,-0.247553
2542,-0.001458,-0.254058
2543,-0.001457,-0.258937
2544,-0.001456,-0.263816
2545,-0.001455,-0.267068
2546,-0.001454,-0.276826
2547,-0.001453,-0.280079
2548,-0.001452,-0.28821
2549,-0.001451,-0.293089
2550,-0.00145,-0.299594
2551,-0.001449,-0.306099
2552,-0.001448,-0.307726
2553,-0.001447,-0.315857
2554,-0.001446,-0.322362
2555,-0.001445,-0.328868
2556,-0.001444,-0.333747
2557,-0.001443,-0.340252
2558,-0.001442,-0.343504
2559,-0.001441,-0.35001
2560,-0.00144,-0.354889
2561,-0.001439,-0.359767
2562,-0.001438,-0.369525
2563,-0.001437,-0.374404
2564,-0.001436,-0.380909
2565,-0.001435,-0.384162
2566,-0.001434,-0.389041
2567,-0.001433,-0.395546
2568,-0.001432,-0.402051
2569,-0.001431,-0.408556
2570,-0.00143,-0.413435
2571,-0.001429,-0.418314
2572,-0.001428,-0.424819
2573,-0.001427,-0.428072
2574,-0.001426,-0.434577
2575,-0.001425,-0.439456
2576,-0.001424,-0.445961
2577,-0.001423,-0.45084
2578,-0.001422,-0.457346
2579,-0.001421,-0.462224
2580,-0.00142,-0.467103
2581,-0.001419,-0.46873
2582,-0.001418,-0.480114
2583,-0.001417,-0.483366
2584,-0.001416,-0.489872
2585,-0.001415,-0.493124
2586,-0.001414,-0.499629
2587,-0.001413,-0.502882
2588,-0.001412,-0.507761
2589,-0.001411,-0.514266
2590,-0.00141,-0.522398
2591,-0.001409,-0.52565
2592,-0.001408,-0.530529
2593,-0.001407,-0.535408
2594,-0.001406,-0.538661
2595,-0.001405,-0.545166
2596,-0.001404,-0.551671
2597,-0.001403,-0.554924
2598,-0.001402,-0.563055
2599,-0.001401,-0.566308
2600,-0.0014,-0.571187
2601,-0.001399,-0.574439
2602,-0.001398,-0.579318
2603,-0.001397,-0.584197
2604,-0.001396,-0.590702
2605,-0.001395,-0.595581
2606,-0.001394,-0.60046
2607,-0.001393,-0.603713
2608,-0.001392,-0.610218
2609,-0.001391,-0.611844
2610,-0.00139,-0.619976
2611,-0.001389,-0.623228
2612,-0.001388,-0.629734
2613,-0.001387,-0.634612
2614,-0.001386,-0.637865
2615,-0.001385,-0.641118
2616,-0.001384,-0.645997
2617,-0.001383,-0.652502
2618,-0.001382,-0.657381
2619,-0.001381,-0.66226
2620,-0.00138,-0.665512
2621,-0.001379,-0.665512
2622,-0.001378,-0.673644
2623,-0.001377,-0.676896
2624,-0.001376,-0.680149
2625,-0.001375,-0.68828
2626,-0.001374,-0.691533
2627,-0.001373,-0.694786
2628,-0.001372,-0.701291
2629,-0.001371,-0.702917
2630,-0.00137,-0.707796
2631,-0.001369,-0.712675
2632,-0.001368,-0.715928
2633,-0.001367,-0.722433
2634,-0.001366,-0.725685
2635,-0.001365,-0.725685
2636,-0.001364,-0.730564
2637,-0.001363,-0.735443
2638,-0.001362,-0.740322
2639,-0.001361,-0.746827
2640,-0.00136,-0.748454
2641,-0.001359,-0.751706
2642,-0.001358,-0.754959
2643,-0.001357,-0.759838
2644,-0.001356,-0.76309
2645,-0.001355,-0.767969
2646,-0.001354,-0.774474
2647,-0.001353,-0.776101
2648,-0.001352,-0.779353
2649,-0.001351,-0.782606
2650,-0.00135,-0.785859
2651,-0.001349,-0.789111
2652,-0.001348,-0.795616
2653,-0.001347,-0.798869
2654,-0.001346,-0.802122
2655,-0.001345,-0.802122
2656,-0.001344,-0.807
2657,-0.001343,-0.808627
2658,-0.001342,-0.815132
2659,-0.001341,-0.816758
2660,-0.00134,-0.823263
2661,-0.001339,-0.82489
2662,-0.001338,-0.82489
2663,-0.001337,-0.828142
2664,-0.001336,-0.831395
2665,-0.001335,-0.836274
2666,-0.001334,-0.841153
2667,-0.001333,-0.844405
2668,-0.001332,-0.847658
2669,-0.001331,-0.849284
2670,-0.00133,-0.850911
2671,-0.001329,-0.854163
2672,-0.001328,-0.859042
2673,-0.001327,-0.860668
2674,-0.001326,-0.865547
2675,-0.001325,-0.865547
2676,-0.001324,-0.8688
2677,-0.001323,-0.872053
2678,-0.001322,-0.875305
2679,-0.001321,-0.875305
2680,-0.00132,-0.880184
2681,-0.001319,-0.883437
2682,-0.001318,-0.885063
2683,-0.001317,-0.888316
2684,-0.001316,-0.889942
2685,-0.001315,-0.893194
2686,-0.001314,-0.894821
2687,-0.001313,-0.898073
2688,-0.001312,-0.898073
2689,-0.001311,-0.901326
2690,-0.00131,-0.904579
2691,-0.001309,-0.906205
2692,-0.001308,-0.909457
2693,-0.001307,-0.909457
2694,-0.001306,-0.91271
2695,-0.001305,-0.914336
2696,-0.001304,-0.917589
2697,-0.001303,-0.919215
2698,-0.001302,-0.919215
2699,-0.001301,-0.922468
2700,-0.0013,-0.925721
2701,-0.001299,-0.928973
2702,-0.001298,-0.928973
2703,-0.001297,-0.930599
2704,-0.001296,-0.933852
2705,-0.001295,-0.933852
2706,-0.001294,-0.937105
2707,-0.001293,-0.938731
2708,-0.001292,-0.938731
2709,-0.001291,-0.941984
2710,-0.00129,-0.940357
2711,-0.001289,-0.945236
2712,-0.001288,-0.945236
2713,-0.001287,-0.948489
2714,-0.001286,-0.946862
2715,-0.001285,-0.950115
2716,-0.001284,-0.950115
2717,-0.001283,-0.951741
2718,-0.001282,-0.954994
2719,-0.001281,-0.954994
2720,-0.00128,-0.95662
2721,-0.001279,-0.95662
2722,-0.001278,-0.958247
2723,-0.001277,-0.958247
2724,-0.001276,-0.958247
2725,-0.001275,-0.961499
2726,-0.001274,-0.963125
2727,-0.001273,-0.961499
2728,-0.001272,-0.966378
2729,-0.001271,-0.963125
2730,-0.00127,-0.964752
2731,-0.001269,-0.963125
2732,-0.001268,-0.968004
2733,-0.001267,-0.968004
2734,-0.001266,-0.971257
2735,-0.001265,-0.969631
2736,-0.001264,-0.968004
2737,-0.001263,-0.971257
2738,-0.001262,-0.969631
2739,-0.001261,-0.971257
2740,-0.00126,-0.972883
2741,-0.001259,-0.972883
2742,-0.001258,-0.972883
2743,-0.001257,-0.971257
2744,-0.001256,-0.971257
2745,-0.001255,-0.97451
2746,-0.001254,-0.97451
2747,-0.001253,-0.976136
2748,-0.001252,-0.976136
2749,-0.001251,-0.976136
2750,-0.00125,-0.972883
2751,-0.001249,-0.97451
2752,-0.001248,-0.97451
2753,-0.001247,-0.972883
2754,-0.001246,-0.976136
2755,-0.001245,-0.976136
2756,-0.001244,-0.972883
2757,-0.001243,-0.972883
2758,-0.001242,-0.972883
2759,-0.001241,-0.972883
2760,-0.00124,-0.971257
2761,-0.001239,-0.97451
2762,-0.001238,-0.971257
2763,-0.001237,-0.972883
2764,-0.001236,-0.969631
2765,-0.001235,-0.968004
2766,-0.001234,-0.969631
2767,-0.001233,-0.969631
2768,-0.001232,-0.969631
2769,-0.001231,-0.966378
2770,-0.00123,-0.966378
2771,-0.001229,-0.964752
2772,-0.001228,-0.964752
2773,-0.001227,-0.961499
2774,-0.001226,-0.961499
2775,-0.001225,-0.964752
2776,-0.001224,-0.963125
2777,-0.001223,-0.959873
2778,-0.001222,-0.958247
2779,-0.001221,-0.95662
2780,-0.00122,-0.954994
2781,-0.001219,-0.95662
2782,-0.001218,-0.95662
2783,-0.001217,-0.954994
2784,-0.001216,-0.951741
2785,-0.001215,-0.950115
2786,-0.001214,-0.948489
2787,-0.001213,-0.948489
2788,-0.001212,-0.946862
2789,-0.001211,-0.946862
2790,-0.00121,-0.945236
2791,-0.001209,-0.941984
2792,-0.001208,-0.940357
2793,-0.001207,-0.937105
2794,-0.001206,-0.938731
2795,-0.001205,-0.938731
2796,-0.001204,-0.935478
2797,-0.001203,-0.933852
2798,-0.001202,-0.932226
2799,-0.001201,-0.928973
2800,-0.0012,-0.927347
2801,-0.001199,-0.924094
2802,-0.001198,-0.924094
2803,-0.001197,-0.922468
2804,-0.001196,-0.919215
2805,-0.001195,-0.915963
2806,-0.001194,-0.915963
2807,-0.001193,-0.91271
2808,-0.001192,-0.909457
2809,-0.001191,-0.906205
2810,-0.00119,-0.906205
2811,-0.001189,-0.906205
2812,-0.001188,-0.902952
2813,-0.001187,-0.8997
2814,-0.001186,-0.896447
2815,-0.001185,-0.894821
2816,-0.001184,-0.891568
2817,-0.001183,-0.891568
2818,-0.001182,-0.889942
2819,-0.001181,-0.886689
2820,-0.00118,-0.880184
2821,-0.001179,-0.878558
2822,-0.001178,-0.875305
2823,-0.001177,-0.873679
2824,-0.001176,-0.872053
2825,-0.001175,-0.867174
2826,-0.001174,-0.867174
2827,-0.001173,-0.862295
2828,-0.001172,-0.859042
2829,-0.001171,-0.855789
2830,-0.00117,-0.852537
2831,-0.001169,-0.852537
2832,-0.001168,-0.849284
2833,-0.001167,-0.846032
2834,-0.001166,-0.842779
2835,-0.001165,-0.839526
2836,-0.001164,-0.834648
2837,-0.001163,-0.834648
2838,-0.001162,-0.831395
2839,-0.001161,-0.828142
2840,-0.00116,-0.821637
2841,-0.001159,-0.820011
2842,-0.001158,-0.816758
2843,-0.001157,-0.811879
2844,-0.001156,-0.811879
2845,-0.001155,-0.808627
2846,-0.001154,-0.805374
2847,-0.001153,-0.798869
2848,-0.001152,-0.797243
2849,-0.001151,-0.79399
2850,-0.00115,-0.790737
2851,-0.001149,-0.787485
2852,-0.001148,-0.78098
2853,-0.001147,-0.78098
2854,-0.001146,-0.774474
2855,-0.001145,-0.771222
2856,-0.001144,-0.767969
2857,-0.001143,-0.76309
2858,-0.001142,-0.759838
2859,-0.001141,-0.754959
2860,-0.00114,-0.751706
2861,-0.001139,-0.748454
2862,-0.001138,-0.745201
2863,-0.001137,-0.738696
2864,-0.001136,-0.735443
2865,-0.001135,-0.733817
2866,-0.001134,-0.727312
2867,-0.001133,-0.724059
2868,-0.001132,-0.720806
2869,-0.001131,-0.715928
2870,-0.00113,-0.709422
2871,-0.001129,-0.707796
2872,-0.001128,-0.701291
2873,-0.001127,-0.699665
2874,-0.001126,-0.696412
2875,-0.001125,-0.689907
2876,-0.001124,-0.686654
2877,-0.001123,-0.680149
2878,-0.001122,-0.67527
2879,-0.001121,-0.673644
2880,-0.00112,-0.670391
2881,-0.001119,-0.66226
2882,-0.001118,-0.659007
2883,-0.001117,-0.654128
2884,-0.001116,-0.649249
2885,-0.001115,-0.645997
2886,-0.001114,-0.642744
2887,-0.001113,-0.637865
2888,-0.001112,-0.632986
2889,-0.001111,-0.626481
2890,-0.00111,-0.619976
2891,-0.001109,-0.616723
2892,-0.001108,-0.611844
2893,-0.001107,-0.608592
2894,-0.001106,-0.603713
2895,-0.001105,-0.60046
2896,-0.001104,-0.593955
2897,-0.001103,-0.58745
2898,-0.001102,-0.582571
2899,-0.001101,-0.577692
2900,-0.0011,-0.574439
2901,-0.001099,-0.567934
2902,-0.001098,-0.566308
2903,-0.001097,-0.559803
2904,-0.001096,-0.553297
2905,-0.001095,-0.548418
2906,-0.001094,-0.545166
2907,-0.001093,-0.540287
2908,-0.001092,-0.535408
2909,-0.001091,-0.528903
2910,-0.00109,-0.52565
2911,-0.001089,-0.517519
2912,-0.001088,-0.51264
2913,-0.001087,-0.507761
2914,-0.001086,-0.504508
2915,-0.001085,-0.499629
2916,-0.001084,-0.493124
2917,-0.001083,-0.486619
2918,-0.001082,-0.480114
2919,-0.001081,-0.473609
2920,-0.00108,-0.470356
2921,-0.001079,-0.465477
2922,-0.001078,-0.462224
2923,-0.001077,-0.455719
2924,-0.001076,-0.45084
2925,-0.001075,-0.442709
2926,-0.001074,-0.439456
2927,-0.001073,-0.431325
2928,-0.001072,-0.428072
2929,-0.001071,-0.424819
2930,-0.00107,-0.418314
2931,-0.001069,-0.411809
2932,-0.001068,-0.403678
2933,-0.001067,-0.398799
2934,-0.001066,-0.39392
2935,-0.001065,-0.389041
2936,-0.001064,-0.385788
2937,-0.001063,-0.380909
2938,-0.001062,-0.372778
2939,-0.001061,-0.36302
2940,-0.00106,-0.359767
2941,-0.001059,-0.353262
2942,-0.001058,-0.35001
2943,-0.001057,-0.345131
2944,-0.001056,-0.338625
2945,-0.001055,-0.333747
2946,-0.001054,-0.327241
2947,-0.001053,-0.320736
2948,-0.001052,-0.312605
2949,-0.001051,-0.310978
2950,-0.00105,-0.304473
2951,-0.001049,-0.299594
2952,-0.001048,-0.291463
2953,-0.001047,-0.284958
2954,-0.001046,-0.280079
2955,-0.001045,-0.273573
2956,-0.001044,-0.268695
2957,-0.001043,-0.263816
2958,-0.001042,-0.25731
2959,-0.001041,-0.250805
2960,-0.00104,-0.2443
2961,-0.001039,-0.237795
2962,-0.001038,-0.23129
2963,-0.001037,-0.228037
2964,-0.001036,-0.221532
2965,-0.001035,-0.215027
2966,-0.001034,-0.210148
2967,-0.001033,-0.20039
2968,-0.001032,-0.195511
2969,-0.001031,-0.189006
2970,-0.00103,-0.187379
2971,-0.001029,-0.179248
2972,-0.001028,-0.172743
2973,-0.001027,-0.166238
2974,-0.001026,-0.159732
2975,-0.001025,-0.154853
2976,-0.001024,-0.148348
2977,-0.001023,-0.145096
2978,-0.001022,-0.13859
2979,-0.001021,-0.132085
2980,-0.00102,-0.12558
2981,-0.001019,-0.117448
2982,-0.001018,-0.11257
2983,-0.001017,-0.106064
2984,-0.001016,-0.101185
2985,-0.001015,-0.0963065
2986,-0.001014,-0.0898013
2987,-0.001013,-0.0816698
2988,-0.001012,-0.0751646
2989,-0.001011,-0.0686594
2990,-0.00101,-0.0637805
2991,-0.001009,-0.0572753
2992,-0.001008,-0.0523964
2993,-0.001007,-0.0475175
2994,-0.001006,-0.0393859
2995,-0.001005,-0.0328807
2996,-0.001004,-0.0247492
2997,-0.001003,-0.0214966
2998,-0.001002,-0.0166177
2999,-0.001001,-0.0101125
3000,-0.001,-0.00523361
3001,-0.000999,0.0012716
3002,-0.000998,0.0110294
3003,-0.000997,0.0175346
3004,-0.000996,0.0207872
3005,-0.000995,0.0256661
3006,-0.000994,0.0321713
3007,-0.000993,0.0386765
3008,-0.000992,0.0451818
3009,-0.000991,0.051687
3010,-0.00099,0.0614448
3011,-0.000989,0.0646974
3012,-0.000988,0.0695763
3013,-0.000987,0.0760815
3014,-0.000986,0.0793341
3015,-0.000985,0.0874656
3016,-0.000984,0.0939708
3017,-0.000983,0.100476
3018,-0.000982,0.106981
3019,-0.000981,0.11186
3020,-0.00098,0.116739
3021,-0.000979,0.121618
3022,-0.000978,0.131376
3023,-0.000977,0.139507
3024,-0.000976,0.146012
3025,-0.000975,0.152518
3026,-0.000974,0.15577
3027,-0.000973,0.159023
3028,-0.000972,0.167154
3029,-0.000971,0.172033
3030,-0.00097,0.181791
3031,-0.000969,0.188296
3032,-0.000968,0.191549
3033,-0.000967,0.196428
3034,-0.000966,0.201307
3035,-0.000965,0.207812
3036,-0.000964,0.214317
3037,-0.000963,0.222449
3038,-0.000962,0.228954
3039,-0.000961,0.233833
3040,-0.00096,0.238712
3041,-0.000959,0.245217
3042,-0.000958,0.250096
3043,-0.000957,0.256601
3044,-0.000956,0.263106
3045,-0.000955,0.269611
3046,-0.000954,0.276117
3047,-0.000953,0.280996
3048,-0.000952,0.284248
3049,-0.000951,0.29238
3050,-0.00095,0.297259
3051,-0.000949,0.303764
3052,-0.000948,0.310269
3053,-0.000947,0.316774
3054,-0.000946,0.321653
3055,-0.000945,0.326532
3056,-0.000944,0.331411
3057,-0.000943,0.337916
3058,-0.000942,0.344421
3059,-0.000941,0.350927
3060,-0.00094,0.355805
3061,-0.000939,0.362311
3062,-0.000938,0.365563
3063,-0.000937,0.370442
3064,-0.000936,0.376947
3065,-0.000935,0.383453
3066,-0.000934,0.389958
3067,-0.000933,0.396463
3068,-0.000932,0.401342
3069,-0.000931,0.406221
3070,-0.00093,0.409473
3071,-0.000929,0.417605
3072,-0.000928,0.42411
3073,-0.000927,0.430615
3074,-0.000926,0.433868
3075,-0.000925,0.438747
3076,-0.000924,0.445252
3077,-0.000923,0.446878
3078,-0.000922,0.45501
3079,-0.000921,0.461515
3080,-0.00092,0.46802
3081,-0.000919,0.472899
3082,-0.000918,0.476152
3083,-0.000917,0.481031
3084,-0.000916,0.48591
3085,-0.000915,0.492415
3086,-0.000914,0.49892
3087,-0.000913,0.505425
3088,-0.000912,0.508678
3089,-0.000911,0.513557
3090,-0.00091,0.516809
3091,-0.000909,0.521688
3092,-0.000908,0.528193
3093,-0.000907,0.534699
3094,-0.000906,0.541204
3095,-0.000905,0.544456
3096,-0.000904,0.549335
3097,-0.000903,0.552588
3098,-0.000902,0.557467
3099,-0.000901,0.563972
3100,-0.0009,0.568851
3101,-0.000899,0.575356
3102,-0.000898,0.578609
3103,-0.000897,0.581861
3104,-0.000896,0.588367
3105,-0.000895,0.593246
3106,-0.000894,0.598124
3107,-0.000893,0.60463
3108,-0.000892,0.609509
3109,-0.000891,0.612761
3110,-0.00089,0.61764
3111,-0.000889,0.619266
3112,-0.000888,0.627398
3113,-0.000887,0.63065
3114,-0.000886,0.637156
3115,-0.000885,0.643661
3116,-0.000884,0.646913
3117,-0.000883,0.650166
3118,-0.000882,0.651792
3119,-0.000881,0.658298
3120,-0.00088,0.664803
3121,-0.000879,0.668055
3122,-0.000878,0.674561
3123,-0.000877,0.681066
3124,-0.000876,0.679439
3125,-0.000875,0.684318
3126,-0.000874,0.687571
3127,-0.000873,0.69245
3128,-0.000872,0.698955
3129,-0.000871,0.703834
3130,-0.00087,0.707087
3131,-0.000869,0.710339
3132,-0.000868,0.713592
3133,-0.000867,0.718471
3134,-0.000866,0.72335
3135,-0.000865,0.726602
3136,-0.000864,0.731481
3137,-0.000863,0.73636
3138,-0.000862,0.739613
3139,-0.000861,0.742865
3140,-0.00086,0.746118
3141,-0.000859,0.750997
3142,-0.000858,0.754249
3143,-0.000857,0.762381
3144,-0.000856,0.762381
3145,-0.000855,0.76726
3146,-0.000854,0.768886
3147,-0.000853,0.772139
3148,-0.000852,0.777018
3149,-0.000851,0.781897
3150,-0.00085,0.786775
3151,-0.000849,0.790028
3152,-0.000848,0.791654
3153,-0.000847,0.794907
3154,-0.000846,0.796533
3155,-0.000845,0.801412
3156,-0.000844,0.806291
3157,-0.000843,0.812796
3158,-0.000842,0.812796
3159,-0.000841,0.817675
3160,-0.00084,0.817675
3161,-0.000839,0.820928
3162,-0.000838,0.825807
3163,-0.000837,0.830686
3164,-0.000836,0.832312
3165,-0.000835,0.838817
3166,-0.000834,0.837191
3167,-0.000833,0.84207
3168,-0.000832,0.84207
3169,-0.000831,0.848575
3170,-0.00083,0.850201
3171,-0.000829,0.853454
3172,-0.000828,0.858333
3173,-0.000827,0.858333
3174,-0.000826,0.859959
3175,-0.000825,0.863212
3176,-0.000824,0.869717
3177,-0.000823,0.871343
3178,-0.000822,0.874596
3179,-0.000821,0.876222
3180,-0.00082,0.877848
3181,-0.000819,0.879475
3182,-0.000818,0.884354
3183,-0.000817,0.88598
3184,-0.000816,0.889232
3185,-0.000815,0.892485
3186,-0.000814,0.892485
3187,-0.000813,0.895738
3188,-0.000812,0.897364
3189,-0.000811,0.900617
3190,-0.00081,0.902243
3191,-0.000809,0.907122
3192,-0.000808,0.907122
3193,-0.000807,0.908748
3194,-0.000806,0.910374
3195,-0.000805,0.913627
3196,-0.000804,0.91688
3197,-0.000803,0.918506
3198,-0.000802,0.921758
3199,-0.000801,0.923385
3200,-0.0008,0.921758
3201,-0.000799,0.925011
3202,-0.000798,0.926637
3203,-0.000797,0.92989
3204,-0.000796,0.933143
3205,-0.000795,0.933143
3206,-0.000794,0.934769
3207,-0.000793,0.934769
3208,-0.000792,0.936395
3209,-0.000791,0.939648
3210,-0.00079,0.941274
3211,-0.000789,0.944527
3212,-0.000788,0.941274
3213,-0.000787,0.944527
3214,-0.000786,0.944527
3215,-0.000785,0.947779
3216,-0.000784,0.949406
3217,-0.000783,0.952658
3218,-0.000782,0.952658
3219,-0.000781,0.952658
3220,-0.00078,0.955911
3221,-0.000779,0.952658
3222,-0.000778,0.954284
3223,-0.000777,0.959163
3224,-0.000776,0.959163
3225,-0.000775,0.96079
3226,-0.000774,0.962416
3227,-0.000773,0.959163
3228,-0.000772,0.959163
3229,-0.000771,0.962416
3230,-0.00077,0.964042
3231,-0.000769,0.967295
3232,-0.000768,0.965669
3233,-0.000767,0.967295
3234,-0.000766,0.964042
3235,-0.000765,0.965669
3236,-0.000764,0.965669
3237,-0.000763,0.970548
3238,-0.000762,0.970548
3239,-0.000761,0.968921
3240,-0.00076,0.968921
3241,-0.000759,0.970548
3242,-0.000758,0.967295
3243,-0.000757,0.970548
3244,-0.000756,0.972174
3245,-0.000755,0.972174
3246,-0.000754,0.9738
3247,-0.000753,0.972174
3248,-0.000752,0.972174
3249,-0.000751,0.970548
3250,-0.00075,0.972174
3251,-0.000749,0.9738
3252,-0.000748,0.9738
3253,-0.000747,0.977053
3254,-0.000746,0.972174
3255,-0.000745,0.972174
3256,-0.000744,0.968921
3257,-0.000743,0.968921
3258,-0.000742,0.970548
3259,-0.000741,0.970548
3260,-0.00074,0.970548
3261,-0.000739,0.970548
3262,-0.000738,0.970548
3263,-0.000737,0.968921
3264,-0.000736,0.967295
3265,-0.000735,0.967295
3266,-0.000734,0.970548
3267,-0.000733,0.967295
3268,-0.000732,0.967295
3269,-0.000731,0.964042
3270,-0.00073,0.964042
3271,-0.000729,0.964042
3272,-0.000728,0.964042
3273,-0.000727,0.962416
3274,-0.000726,0.962416
3275,-0.000725,0.962416
3276,-0.000724,0.959163
3277,-0.000723,0.96079
3278,-0.000722,0.955911
3279,-0.000721,0.955911
3280,-0.00072,0.955911
3281,-0.000719,0.955911
3282,-0.000718,0.952658
3283,-0.000717,0.952658
3284,-0.000716,0.949406
3285,-0.000715,0.949406
3286,-0.000714,0.947779
3287,-0.000713,0.947779
3288,-0.000712,0.944527
3289,-0.000711,0.944527
3290,-0.00071,0.941274
3291,-0.000709,0.941274
3292,-0.000708,0.938021
3293,-0.000707,0.938021
3294,-0.000706,0.936395
3295,-0.000705,0.936395
3296,-0.000704,0.933143
3297,-0.000703,0.931516
3298,-0.000702,0.928264
3299,-0.000701,0.926637
3300,-0.0007,0.925011
3301,-0.000699,0.923385
3302,-0.000698,0.923385
3303,-0.000697,0.921758
3304,-0.000696,0.91688
3305,-0.000695,0.915253
3306,-0.000694,0.912001
3307,-0.000693,0.912001
3308,-0.000692,0.910374
3309,-0.000691,0.908748
3310,-0.00069,0.903869
3311,-0.000689,0.902243
3312,-0.000688,0.89899
3313,-0.000687,0.895738
3314,-0.000686,0.895738
3315,-0.000685,0.894111
3316,-0.000684,0.890859
3317,-0.000683,0.889232
3318,-0.000682,0.88598
3319,-0.000681,0.882727
3320,-0.00068,0.879475
3321,-0.000679,0.876222
3322,-0.000678,0.877848
3323,-0.000677,0.872969
3324,-0.000676,0.869717
3325,-0.000675,0.866464
3326,-0.000674,0.863212
3327,-0.000673,0.859959
3328,-0.000672,0.856706
3329,-0.000671,0.858333
3330,-0.00067,0.853454
3331,-0.000669,0.851828
3332,-0.000668,0.848575
3333,-0.000667,0.84207
3334,-0.000666,0.840443
3335,-0.000665,0.838817
3336,-0.000664,0.835564
3337,-0.000663,0.832312
3338,-0.000662,0.830686
3339,-0.000661,0.82418
3340,-0.00066,0.819301
3341,-0.000659,0.817675
3342,-0.000658,0.817675
3343,-0.000657,0.812796
3344,-0.000656,0.809544
3345,-0.000655,0.806291
3346,-0.000654,0.799786
3347,-0.000653,0.796533
3348,-0.000652,0.793281
3349,-0.000651,0.793281
3350,-0.00065,0.790028
3351,-0.000649,0.786775
3352,-0.000648,0.781897
3353,-0.000647,0.773765
3354,-0.000646,0.773765
3355,-0.000645,0.768886
3356,-0.000644,0.76726
3357,-0.000643,0.764007
3358,-0.000642,0.759128
3359,-0.000641,0.754249
3360,-0.00064,0.747744
3361,-0.000639,0.744492
3362,-0.000638,0.742865
3363,-0.000637,0.737986
3364,-0.000636,0.737986
3365,-0.000635,0.731481
3366,-0.000634,0.728229
3367,-0.000633,0.721723
3368,-0.000632,0.716844
3369,-0.000631,0.713592
3370,-0.00063,0.710339
3371,-0.000629,0.707087
3372,-0.000628,0.703834
3373,-0.000627,0.697329
3374,-0.000626,0.690824
3375,-0.000625,0.687571
3376,-0.000624,0.684318
3377,-0.000623,0.681066
3378,-0.000622,0.677813
3379,-0.000621,0.674561
3380,-0.00062,0.668055
3381,-0.000619,0.663176
3382,-0.000618,0.658298
3383,-0.000617,0.653419
3384,-0.000616,0.650166
3385,-0.000615,0.645287
3386,-0.000614,0.642035
3387,-0.000613,0.635529
3388,-0.000612,0.632277
3389,-0.000611,0.624145
3390,-0.00061,0.622519
3391,-0.000609,0.616014
3392,-0.000608,0.614387
3393,-0.000607,0.607882
3394,-0.000606,0.601377
3395,-0.000605,0.594872
3396,-0.000604,0.591619
3397,-0.000603,0.588367
3398,-0.000602,0.583488
3399,-0.000601,0.580235
3400,-0.0006,0.57373
3401,-0.000599,0.567225
3402,-0.000598,0.560719
3403,-0.000597,0.559093
3404,-0.000596,0.552588
3405,-0.000595,0.550962
3406,-0.000594,0.544456
3407,-0.000593,0.539578
3408,-0.000592,0.533072
3409,-0.000591,0.524941
3410,-0.00059,0.521688
3411,-0.000589,0.516809
3412,-0.000588,0.513557
3413,-0.000587,0.510304
3414,-0.000586,0.500546
3415,-0.000585,0.494041
3416,-0.000584,0.490788
3417,-0.000583,0.484283
3418,-0.000582,0.479404
3419,-0.000581,0.477778
3420,-0.00058,0.471273
3421,-0.000579,0.466394
3422,-0.000578,0.459889
3423,-0.000577,0.453384
3424,-0.000576,0.446878
3425,-0.000575,0.443626
3426,-0.000574,0.438747
3427,-0.000573,0.435494
3428,-0.000572,0.428989
3429,-0.000571,0.422484
3430,-0.00057,0.415979
3431,-0.000569,0.409473
3432,-0.000568,0.404594
3433,-0.000567,0.399716
3434,-0.000566,0.396463
3435,-0.000565,0.388331
3436,-0.000564,0.383453
3437,-0.000563,0.375321
3438,-0.000562,0.368816
3439,-0.000561,0.365563
3440,-0.00056,0.360684
3441,-0.000559,0.354179
3442,-0.000558,0.347674
3443,-0.000557,0.344421
3444,-0.000556,0.33629
3445,-0.000555,0.329785
3446,-0.000554,0.326532
3447,-0.000553,0.321653
3448,-0.000552,0.315148
3449,-0.000551,0.308643
3450,-0.00055,0.302137
3451,-0.000549,0.295632
3452,-0.000548,0.289127
3453,-0.000547,0.284248
3454,-0.000546,0.279369
3455,-0.000545,0.27449
3456,-0.000544,0.269611
3457,-0.000543,0.259854
3458,-0.000542,0.254975
3459,-0.000541,0.250096
3460,-0.00054,0.243591
3461,-0.000539,0.238712
3462,-0.000538,0.233833
3463,-0.000537,0.224075
3464,-0.000536,0.219196
3465,-0.000535,0.212691
3466,-0.000534,0.207812
3467,-0.000533,0.202933
3468,-0.000532,0.198054
3469,-0.000531,0.188296
3470,-0.00053,0.185044
3471,-0.000529,0.178539
3472,-0.000528,0.172033
3473,-0.000527,0.165528
3474,-0.000526,0.159023
3475,-0.000525,0.15577
3476,-0.000524,0.149265
3477,-0.000523,0.14276
3478,-0.000522,0.136255
3479,-0.000521,0.129749
3480,-0.00052,0.121618
3481,-0.000519,0.118365
3482,-0.000518,0.11186
3483,-0.000517,0.106981
3484,-0.000516,0.0972234
3485,-0.000515,0.0939708
3486,-0.000514,0.0874656
3487,-0.000513,0.0809604
3488,-0.000512,0.0744552
3489,-0.000511,0.0695763
3490,-0.00051,0.0646974
3491,-0.000509,0.0565659
3492,-0.000508,0.051687
3493,-0.000507,0.0451818
3494,-0.000506,0.0370502
3495,-0.000505,0.0337976
3496,-0.000504,0.0272924
3497,-0.000503,0.0207872
3498,-0.000502,0.014282
3499,-0.000501,0.00777681
3500,-0.0005,0.0012716
3501,-0.000499,-0.00360731
3502,-0.000498,-0.0101125
3503,-0.000497,-0.0166177
3504,-0.000496,-0.0198703
3505,-0.000495,-0.0280018
3506,-0.000494,-0.034507
3507,-0.000493,-0.0410122
3508,-0.000492,-0.0475175
3509,-0.000491,-0.0523964
3510,-0.00049,-0.0589016
3511,-0.000489,-0.0637805
3512,-0.000488,-0.0702857
3513,-0.000487,-0.0767909
3514,-0.000486,-0.0832961
3515,-0.000485,-0.0898013
3516,-0.000484,-0.0946802
3517,-0.000483,-0.101185
3518,-0.000482,-0.106064
3519,-0.000481,-0.11257
3520,-0.00048,-0.119075
3521,-0.000479,-0.12558
3522,-0.000478,-0.132085
3523,-0.000477,-0.13859
3524,-0.000476,-0.143469
3525,-0.000475,-0.149974
3526,-0.000474,-0.158106
3527,-0.000473,-0.161359
3528,-0.000472,-0.167864
3529,-0.000471,-0.174369
3530,-0.00047,-0.180874
3531,-0.000469,-0.185753
3532,-0.000468,-0.192258
3533,-0.000467,-0.197137
3534,-0.000466,-0.203642
3535,-0.000465,-0.210148
3536,-0.000464,-0.216653
3537,-0.000463,-0.223158
3538,-0.000462,-0.228037
3539,-0.000461,-0.234542
3540,-0.00046,-0.239421
3541,-0.000459,-0.245926
3542,-0.000458,-0.252432
3543,-0.000457,-0.25731
3544,-0.000456,-0.263816
3545,-0.000455,-0.270321
3546,-0.000454,-0.276826
3547,-0.000453,-0.280079
3548,-0.000452,-0.286584
3549,-0.000451,-0.293089
3550,-0.00045,-0.299594
3551,-0.000449,-0.306099
3552,-0.000448,-0.309352
3553,-0.000447,-0.315857
3554,-0.000446,-0.322362
3555,-0.000445,-0.327241
3556,-0.000444,-0.333747
3557,-0.000443,-0.338625
3558,-0.000442,-0.345131
3559,-0.000441,-0.351636
3560,-0.00044,-0.354889
3561,-0.000439,-0.36302
3562,-0.000438,-0.366273
3563,-0.000437,-0.374404
3564,-0.000436,-0.380909
3565,-0.000435,-0.384162
3566,-0.000434,-0.390667
3567,-0.000433,-0.395546
3568,-0.000432,-0.402051
3569,-0.000431,-0.40693
3570,-0.00043,-0.413435
3571,-0.000429,-0.416688
3572,-0.000428,-0.423193
3573,-0.000427,-0.429698
3574,-0.000426,-0.434577
3575,-0.000425,-0.441083
3576,-0.000424,-0.445961
3577,-0.000423,-0.449214
3578,-0.000422,-0.455719
3579,-0.000421,-0.462224
3580,-0.00042,-0.46873
3581,-0.000419,-0.471982
3582,-0.000418,-0.476861
3583,-0.000417,-0.484993
3584,-0.000416,-0.488245
3585,-0.000415,-0.493124
3586,-0.000414,-0.499629
3587,-0.000413,-0.506135
3588,-0.000412,-0.509387
3589,-0.000411,-0.515892
3590,-0.00041,-0.519145
3591,-0.000409,-0.524024
3592,-0.000408,-0.532155
3593,-0.000407,-0.535408
3594,-0.000406,-0.540287
3595,-0.000405,-0.545166
3596,-0.000404,-0.550045
3597,-0.000403,-0.55655
3598,-0.000402,-0.561429
3599,-0.000401,-0.566308
3600,-0.0004,-0.56956
3601,-0.000399,-0.576066
3602,-0.000398,-0.582571
3603,-0.000397,-0.584197
3604,-0.000396,-0.590702
3605,-0.000395,-0.595581
3606,-0.000394,-0.60046
3607,-0.000393,-0.603713
3608,-0.000392,-0.610218
3609,-0.000391,-0.615097
3610,-0.00039,-0.619976
3611,-0.000389,-0.626481
3612,-0.000388,-0.629734
3613,-0.000387,-0.629734
3614,-0.000386,-0.636239
3615,-0.000385,-0.641118
3616,-0.000384,-0.645997
3617,-0.000383,-0.652502
3618,-0.000382,-0.657381
3619,-0.000381,-0.660633
3620,-0.00038,-0.663886
3621,-0.000379,-0.667138
3622,-0.000378,-0.672017
3623,-0.000377,-0.678523
3624,-0.000376,-0.681775
3625,-0.000375,-0.685028
3626,-0.000374,-0.691533
3627,-0.000373,-0.694786
3628,-0.000372,-0.699665
3629,-0.000371,-0.702917
3630,-0.00037,-0.70617
3631,-0.000369,-0.714301
3632,-0.000368,-0.715928
3633,-0.000367,-0.722433
3634,-0.000366,-0.724059
3635,-0.000365,-0.727312
3636,-0.000364,-0.730564
3637,-0.000363,-0.737069
3638,-0.000362,-0.740322
3639,-0.000361,-0.743575
3640,-0.00036,-0.75008
3641,-0.000359,-0.751706
3642,-0.000358,-0.754959
3643,-0.000357,-0.761464
3644,-0.000356,-0.764717
3645,-0.000355,-0.767969
3646,-0.000354,-0.771222
3647,-0.000353,-0.776101
3648,-0.000352,-0.779353
3649,-0.000351,-0.78098
3650,-0.00035,-0.787485
3651,-0.000349,-0.792364
3652,-0.000348,-0.79399
3653,-0.000347,-0.795616
3654,-0.000346,-0.800495
3655,-0.000345,-0.802122
3656,-0.000344,-0.808627
3657,-0.000343,-0.811879
3658,-0.000342,-0.815132
3659,-0.000341,-0.818385
3660,-0.00034,-0.818385
3661,-0.000339,-0.823263
3662,-0.000338,-0.828142
3663,-0.000337,-0.831395
3664,-0.000336,-0.834648
3665,-0.000335,-0.8379
3666,-0.000334,-0.841153
3667,-0.000333,-0.842779
3668,-0.000332,-0.846032
3669,-0.000331,-0.849284
3670,-0.00033,-0.852537
3671,-0.000329,-0.855789
3672,-0.000328,-0.855789
3673,-0.000327,-0.860668
3674,-0.000326,-0.863921
3675,-0.000325,-0.865547
3676,-0.000324,-0.8688
3677,-0.000323,-0.872053
3678,-0.000322,-0.875305
3679,-0.000321,-0.878558
3680,-0.00032,-0.878558
3681,-0.000319,-0.88181
3682,-0.000318,-0.885063
3683,-0.000317,-0.888316
3684,-0.000316,-0.889942
3685,-0.000315,-0.893194
3686,-0.000314,-0.894821
3687,-0.000313,-0.898073
3688,-0.000312,-0.8997
3689,-0.000311,-0.901326
3690,-0.00031,-0.901326
3691,-0.000309,-0.907831
3692,-0.000308,-0.909457
3693,-0.000307,-0.911084
3694,-0.000306,-0.914336
3695,-0.000305,-0.914336
3696,-0.000304,-0.917589
3697,-0.000303,-0.919215
3698,-0.000302,-0.920842
3699,-0.000301,-0.924094
3700,-0.0003,-0.925721
3701,-0.000299,-0.927347
3702,-0.000298,-0.930599
3703,-0.000297,-0.930599
3704,-0.000296,-0.933852
3705,-0.000295,-0.933852
3706,-0.000294,-0.935478
3707,-0.000293,-0.938731
3708,-0.000292,-0.938731
3709,-0.000291,-0.94361
3710,-0.00029,-0.940357
3711,-0.000289,-0.94361
3712,-0.000288,-0.94361
3713,-0.000287,-0.948489
3714,-0.000286,-0.948489
3715,-0.000285,-0.948489
3716,-0.000284,-0.951741
3717,-0.000283,-0.951741
3718,-0.000282,-0.954994
3719,-0.000281,-0.953368
3720,-0.00028,-0.95662
3721,-0.000279,-0.954994
3722,-0.000278,-0.958247
3723,-0.000277,-0.961499
3724,-0.000276,-0.959873
3725,-0.000275,-0.963125
3726,-0.000274,-0.963125
3727,-0.000273,-0.959873
3728,-0.000272,-0.963125
3729,-0.000271,-0.966378
3730,-0.00027,-0.964752
3731,-0.000269,-0.966378
3732,-0.000268,-0.969631
3733,-0.000267,-0.966378
3734,-0.000266,-0.968004
3735,-0.000265,-0.968004
3736,-0.000264,-0.968004
3737,-0.000263,-0.971257
3738,-0.000262,-0.971257
3739,-0.000261,-0.971257
3740,-0.00026,-0.971257
3741,-0.000259,-0.971257
3742,-0.000258,-0.971257
3743,-0.000257,-0.969631
3744,-0.000256,-0.97451
3745,-0.000255,-0.97451
3746,-0.000254,-0.97451
3747,-0.000253,-0.97451
3748,-0.000252,-0.97451
3749,-0.000251,-0.97451
3750,-0.00025,-0.972883
3751,-0.000249,-0.97451
3752,-0.000248,-0.97451
3753,-0.000247,-0.97451
3754,-0.000246,-0.97451
3755,-0.000245,-0.97451
3756,-0.000244,-0.97451
3757,-0.000243,-0.971257
3758,-0.000242,-0.972883
3759,-0.000241,-0.971257
3760,-0.00024,-0.971257
3761,-0.000239,-0.969631
3762,-0.000238,-0.972883
3763,-0.000237,-0.972883
3764,-0.000236,-0.969631
3765,-0.000235,-0.969631
3766,-0.000234,-0.966378
3767,-0.000233,-0.969631
3768,-0.000232,-0.969631
3769,-0.000231,-0.968004
3770,-0.00023,-0.964752
3771,-0.000229,-0.964752
3772,-0.000228,-0.964752
3773,-0.000227,-0.961499
3774,-0.000226,-0.963125
3775,-0.000225,-0.963125
3776,-0.000224,-0.959873
3777,-0.000223,-0.959873
3778,-0.000222,-0.959873
3779,-0.000221,-0.95662
3780,-0.00022,-0.958247
3781,-0.000219,-0.95662
3782,-0.000218,-0.954994
3783,-0.000217,-0.953368
3784,-0.000216,-0.951741
3785,-0.000215,-0.948489
3786,-0.000214,-0.948489
3787,-0.000213,-0.950115
3788,-0.000212,-0.946862
3789,-0.000211,-0.946862
3790,-0.00021,-0.94361
3791,-0.000209,-0.94361
3792,-0.000208,-0.938731
3793,-0.000207,-0.940357
3794,-0.000206,-0.938731
3795,-0.000205,-0.940357
3796,-0.000204,-0.933852
3797,-0.000203,-0.932226
3798,-0.000202,-0.932226
3799,-0.000201,-0.928973
3800,-0.0002,-0.927347
3801,-0.000199,-0.924094
3802,-0.000198,-0.922468
3803,-0.000197,-0.920842
3804,-0.000196,-0.919215
3805,-0.000195,-0.915963
3806,-0.000194,-0.915963
3807,-0.000193,-0.917589
3808,-0.000192,-0.911084
3809,-0.000191,-0.909457
3810,-0.00019,-0.906205
3811,-0.000189,-0.902952
3812,-0.000188,-0.901326
3813,-0.000187,-0.901326
3814,-0.000186,-0.898073
3815,-0.000185,-0.894821
3816,-0.000184,-0.891568
3817,-0.000183,-0.889942
3818,-0.000182,-0.886689
3819,-0.000181,-0.883437
3820,-0.00018,-0.883437
3821,-0.000179,-0.880184
3822,-0.000178,-0.876931
3823,-0.000177,-0.873679
3824,-0.000176,-0.8688
3825,-0.000175,-0.8688
3826,-0.000174,-0.867174
3827,-0.000173,-0.863921
3828,-0.000172,-0.860668
3829,-0.000171,-0.857416
3830,-0.00017,-0.854163
3831,-0.000169,-0.850911
3832,-0.000168,-0.847658
3833,-0.000167,-0.846032
3834,-0.000166,-0.841153
3835,-0.000165,-0.841153
3836,-0.000164,-0.836274
3837,-0.000163,-0.833021
3838,-0.000162,-0.829769
3839,-0.000161,-0.826516
3840,-0.00016,-0.823263
3841,-0.000159,-0.820011
3842,-0.000158,-0.816758
3843,-0.000157,-0.813506
3844,-0.000156,-0.810253
3845,-0.000155,-0.807
3846,-0.000154,-0.803748
3847,-0.000153,-0.798869
3848,-0.000152,-0.795616
3849,-0.000151,-0.79399
3850,-0.00015,-0.787485
3851,-0.000149,-0.785859
3852,-0.000148,-0.782606
3853,-0.000147,-0.779353
3854,-0.000146,-0.774474
3855,-0.000145,-0.771222
3856,-0.000144,-0.767969
3857,-0.000143,-0.76309
3858,-0.000142,-0.759838
3859,-0.000141,-0.754959
3860,-0.00014,-0.751706
3861,-0.000139,-0.748454
3862,-0.000138,-0.745201
3863,-0.000137,-0.740322
3864,-0.000136,-0.735443
3865,-0.000135,-0.732191
3866,-0.000134,-0.727312
3867,-0.000133,-0.724059
3868,-0.000132,-0.720806
3869,-0.000131,-0.715928
3870,-0.00013,-0.711049
3871,-0.000129,-0.70617
3872,-0.000128,-0.701291
3873,-0.000127,-0.701291
3874,-0.000126,-0.696412
3875,-0.000125,-0.691533
3876,-0.000124,-0.686654
3877,-0.000123,-0.681775
3878,-0.000122,-0.67527
3879,-0.000121,-0.672017
3880,-0.00012,-0.670391
3881,-0.000119,-0.663886
3882,-0.000118,-0.660633
3883,-0.000117,-0.655754
3884,-0.000116,-0.649249
3885,-0.000115,-0.645997
3886,-0.000114,-0.64437
3887,-0.000113,-0.637865
3888,-0.000112,-0.632986
3889,-0.000111,-0.628107
3890,-0.00011,-0.623228
3891,-0.000109,-0.616723
3892,-0.000108,-0.611844
3893,-0.000107,-0.610218
3894,-0.000106,-0.605339
3895,-0.000105,-0.602086
3896,-0.000104,-0.593955
3897,-0.000103,-0.589076
3898,-0.000102,-0.582571
3899,-0.000101,-0.579318
3900,-0.0001,-0.576066
3901,-9.9e-05,-0.56956
3902,-9.8e-05,-0.564681
3903,-9.7e-05,-0.559803
3904,-9.6e-05,-0.554924
3905,-9.5e-05,-0.550045
3906,-9.4e-05,-0.54354
3907,-9.3e-05,-0.540287
3908,-9.2e-05,-0.537034
3909,-9.1e-05,-0.528903
3910,-9e-05,-0.52565
3911,-8.9e-05,-0.519145
3912,-8.8e-05,-0.51264
3913,-8.7e-05,-0.511014
3914,-8.6e-05,-0.504508
3915,-8.5e-05,-0.498003
3916,-8.4e-05,-0.49475
3917,-8.3e-05,-0.486619
3918,-8.2e-05,-0.483366
3919,-8.1e-05,-0.476861
3920,-8e-05,-0.471982
3921,-7.9e-05,-0.46873
3922,-7.8e-05,-0.462224
3923,-7.7e-05,-0.455719
3924,-7.6e-05,-0.45084
3925,-7.5e-05,-0.444335
3926,-7.4e-05,-0.439456
3927,-7.3e-05,-0.434577
3928,-7.2e-05,-0.428072
3929,-7.1e-05,-0.423193
3930,-7e-05,-0.416688
3931,-6.9e-05,-0.413435
3932,-6.8e-05,-0.40693
3933,-6.7e-05,-0.400425
3934,-6.6e-05,-0.395546
3935,-6.5e-05,-0.389041
3936,-6.4e-05,-0.384162
3937,-6.3e-05,-0.377657
3938,-6.2e-05,-0.371152
3939,-6.1e-05,-0.367899
3940,-6e-05,-0.361394
3941,-5.9e-05,-0.356515
3942,-5.8e-05,-0.35001
3943,-5.7e-05,-0.341878
3944,-5.6e-05,-0.338625
3945,-5.5e-05,-0.33212
3946,-5.4e-05,-0.327241
3947,-5.3e-05,-0.320736
3948,-5.2e-05,-0.314231
3949,-5.1e-05,-0.309352
3950,-5e-05,-0.304473
3951,-4.9e-05,-0.297968
3952,-4.8e-05,-0.293089
3953,-4.7e-05,-0.286584
3954,-4.6e-05,-0.280079
3955,-4.5e-05,-0.276826
3956,-4.4e-05,-0.268695
3957,-4.3e-05,-0.262189
3958,-4.2e-05,-0.255684
3959,-4.1e-05,-0.252432
3960,-4e-05,-0.245926
3961,-3.9e-05,-0.239421
3962,-3.8e-05,-0.232916
3963,-3.7e-05,-0.226411
3964,-3.6e-05,-0.223158
3965,-3.5e-05,-0.215027
3966,-3.4e-05,-0.208521
3967,-3.3e-05,-0.202016
3968,-3.2e-05,-0.198764
3969,-3.1e-05,-0.190632
3970,-3e-05,-0.187379
3971,-2.9e-05,-0.179248
3972,-2.8e-05,-0.172743
3973,-2.7e-05,-0.167864
3974,-2.6e-05,-0.162985
3975,-2.5e-05,-0.15648
3976,-2.4e-05,-0.149974
3977,-2.3e-05,-0.143469
3978,-2.2e-05,-0.136964
3979,-2.1e-05,-0.132085
3980,-2e-05,-0.12558
3981,-1.9e-05,-0.119075
3982,-1.8e-05,-0.115822
3983,-1.7e-05,-0.106064
3984,-1.6e-05,-0.0995591
3985,-1.5e-05,-0.0946802
3986,-1.4e-05,-0.088175
3987,-1.3e-05,-0.0832961
3988,-1.2e-05,-0.0767909
3989,-1.1e-05,-0.0702857
3990,-1e-05,-0.0637805
3991,-9e-06,-0.0589016
3992,-8e-06,-0.0523964
3993,-7e-06,-0.0475175
3994,-6e-06,-0.0410122
3995,-5e-06,-0.034507
3996,-4e-06,-0.0280018
3997,-3e-06,-0.0214966
3998,-2e-06,-0.0166177
3999,-1e-06,-0.0101125
4000,0,-0.00360731
4001,1e-06,0.0012716
4002,2e-06,0.00777681
4003,3e-06,0.014282
4004,4e-06,0.0207872
4005,5e-06,0.0256661
4006,6e-06,0.0321713
4007,7e-06,0.0386765
4008,8e-06,0.0451818
4009,9e-06,0.051687
4010,1e-05,0.0565659
4011,1.1e-05,0.0630711
4012,1.2e-05,0.0695763
4013,1.3e-05,0.0760815
4014,1.4e-05,0.0825867
4015,1.5e-05,0.0890919
4016,1.6e-05,0.0955971
4017,1.7e-05,0.0988497
4018,1.8e-05,0.105355
4019,1.9e-05,0.11186
4020,2e-05,0.118365
4021,2.1e-05,0.124871
4022,2.2e-05,0.131376
4023,2.3e-05,0.136255
4024,2.4e-05,0.14276
4025,2.5e-05,0.149265
4026,2.6e-05,0.15577
4027,2.7e-05,0.162275
4028,2.8e-05,0.165528
4029,2.9e-05,0.17366
4030,3e-05,0.180165
4031,3.1e-05,0.185044
4032,3.2e-05,0.191549
4033,3.3e-05,0.198054
4034,3.4e-05,0.202933
4035,3.5e-05,0.209438
4036,3.6e-05,0.214317
4037,3.7e-05,0.220822
4038,3.8e-05,0.227328
4039,3.9e-05,0.233833
4040,4e-05,0.240338
4041,4.1e-05,0.245217
4042,4.2e-05,0.251722
4043,4.3e-05,0.256601
4044,4.4e-05,0.263106
4045,4.5e-05,0.267985
4046,4.6e-05,0.27449
4047,4.7e-05,0.280996
4048,4.8e-05,0.287501
4049,4.9e-05,0.29238
4050,5e-05,0.298885
4051,5.1e-05,0.303764
4052,5.2e-05,0.308643
4053,5.3e-05,0.315148
4054,5.4e-05,0.320027
4055,5.5e-05,0.326532
4056,5.6e-05,0.333037
4057,5.7e-05,0.339542
4058,5.8e-05,0.341169
4059,5.9e-05,0.347674
4060,6e-05,0.354179
4061,6.1e-05,0.360684
4062,6.2e-05,0.36719
4063,6.3e-05,0.375321
4064,6.4e-05,0.378574
4065,6.5e-05,0.383453
4066,6.6e-05,0.389958
4067,6.7e-05,0.39321
4068,6.8e-05,0.399716
4069,6.9e-05,0.406221
4070,7e-05,0.412726
4071,7.1e-05,0.417605
4072,7.2e-05,0.422484
4073,7.3e-05,0.427363
4074,7.4e-05,0.433868
4075,7.5e-05,0.43712
4076,7.6e-05,0.445252
4077,7.7e-05,0.450131
4078,7.8e-05,0.456636
4079,7.9e-05,0.461515
4080,8e-05,0.464768
4081,8.1e-05,0.469647
4082,8.2e-05,0.476152
4083,8.3e-05,0.482657
4084,8.4e-05,0.489162
4085,8.5e-05,0.494041
4086,8.6e-05,0.497294
4087,8.7e-05,0.503799
4088,8.8e-05,0.507051
4089,8.9e-05,0.510304
4090,9e-05,0.518436
4091,9.1e-05,0.524941
4092,9.2e-05,0.52982
4093,9.3e-05,0.533072
4094,9.4e-05,0.537951
4095,9.5e-05,0.541204
4096,9.6e-05,0.547709
4097,9.7e-05,0.554214
4098,9.8e-05,0.559093
4099,9.9e-05,0.563972
4100,0.0001,0.570477
4101,0.000101,0.57373
4102,0.000102,0.578609
4103,0.000103,0.581861
4104,0.000104,0.58674
4105,0.000105,0.596498
4106,0.000106,0.598124
4107,0.000107,0.60463
4108,0.000108,0.607882
4109,0.000109,0.609509
4110,0.00011,0.616014
4111,0.000111,0.624145
4112,0.000112,0.627398
4113,0.000113,0.633903
4114,0.000114,0.637156
4115,0.000115,0.640408
4116,0.000116,0.643661
4117,0.000117,0.64854
4118,0.000118,0.656671
4119,0.000119,0.659924
4120,0.00012,0.664803
4121,0.000121,0.668055
4122,0.000122,0.669682
4123,0.000123,0.676187
4124,0.000124,0.681066
4125,0.000125,0.684318
4126,0.000126,0.690824
4127,0.000127,0.695702
4128,0.000128,0.698955
4129,0.000129,0.702208
4130,0.00013,0.70546
4131,0.000131,0.708713
4132,0.000132,0.715218
4133,0.000133,0.720097
4134,0.000134,0.726602
4135,0.000135,0.724976
4136,0.000136,0.731481
4137,0.000137,0.733107
4138,0.000138,0.737986
4139,0.000139,0.744492
4140,0.00014,0.747744
4141,0.000141,0.752623
4142,0.000142,0.755876
4143,0.000143,0.759128
4144,0.000144,0.760755
4145,0.000145,0.765634
4146,0.000146,0.768886
4147,0.000147,0.773765
4148,0.000148,0.778644
4149,0.000149,0.781897
4150,0.00015,0.785149
4151,0.000151,0.786775
4152,0.000152,0.790028
4153,0.000153,0.793281
4154,0.000154,0.79816
4155,0.000155,0.804665
4156,0.000156,0.806291
4157,0.000157,0.809544
4158,0.000158,0.814423
4159,0.000159,0.814423
4160,0.00016,0.817675
4161,0.000161,0.82418
4162,0.000162,0.82418
4163,0.000163,0.829059
4164,0.000164,0.832312
4165,0.000165,0.835564
4166,0.000166,0.838817
4167,0.000167,0.840443
4168,0.000168,0.843696
4169,0.000169,0.846949
4170,0.00017,0.851828
4171,0.000171,0.85508
4172,0.000172,0.85508
4173,0.000173,0.856706
4174,0.000174,0.859959
4175,0.000175,0.863212
4176,0.000176,0.868091
4177,0.000177,0.871343
4178,0.000178,0.874596
4179,0.000179,0.876222
4180,0.00018,0.876222
4181,0.000181,0.879475
4182,0.000182,0.882727
4183,0.000183,0.88598
4184,0.000184,0.889232
4185,0.000185,0.892485
4186,0.000186,0.895738
4187,0.000187,0.894111
4188,0.000188,0.897364
4189,0.000189,0.900617
4190,0.00019,0.900617
4191,0.000191,0.903869
4192,0.000192,0.907122
4193,0.000193,0.908748
4194,0.000194,0.910374
4195,0.000195,0.913627
4196,0.000196,0.913627
4197,0.000197,0.918506
4198,0.000198,0.918506
4199,0.000199,0.923385
4200,0.0002,0.923385
4201,0.000201,0.925011
4202,0.000202,0.928264
4203,0.000203,0.928264
4204,0.000204,0.931516
4205,0.000205,0.931516
4206,0.000206,0.936395
4207,0.000207,0.936395
4208,0.000208,0.936395
4209,0.000209,0.938021
4210,0.00021,0.939648
4211,0.000211,0.9429
4212,0.000212,0.9429
4213,0.000213,0.946153
4214,0.000214,0.946153
4215,0.000215,0.947779
4216,0.000216,0.947779
4217,0.000217,0.949406
4218,0.000218,0.951032
4219,0.000219,0.951032
4220,0.00022,0.955911
4221,0.000221,0.955911
4222,0.000222,0.955911
4223,0.000223,0.955911
4224,0.000224,0.955911
4225,0.000225,0.959163
4226,0.000226,0.962416
4227,0.000227,0.96079
4228,0.000228,0.962416
4229,0.000229,0.962416
4230,0.00023,0.962416
4231,0.000231,0.962416
4232,0.000232,0.965669
4233,0.000233,0.967295
4234,0.000234,0.967295
4235,0.000235,0.965669
4236,0.000236,0.965669
4237,0.000237,0.968921
4238,0.000238,0.968921
4239,0.000239,0.972174
4240,0.00024,0.970548
4241,0.000241,0.970548
4242,0.000242,0.968921
4243,0.000243,0.970548
4244,0.000244,0.967295
4245,0.000245,0.970548
4246,0.000246,0.9738
4247,0.000247,0.9738
4248,0.000248,0.9738
4249,0.000249,0.972174
4250,0.00025,0.9738
4251,0.000251,0.970548
4252,0.000252,0.970548
4253,0.000253,0.9738
4254,0.000254,0.972174
4255,0.000255,0.9738
4256,0.000256,0.970548
4257,0.000257,0.968921
4258,0.000258,0.967295
4259,0.000259,0.970548
4260,0.00026,0.970548
4261,0.000261,0.970548
4262,0.000262,0.972174
4263,0.000263,0.968921
4264,0.000264,0.967295
4265,0.000265,0.964042
4266,0.000266,0.965669
4267,0.000267,0.968921
4268,0.000268,0.968921
4269,0.000269,0.965669
4270,0.00027,0.965669
4271,0.000271,0.965669
4272,0.000272,0.962416
4273,0.000273,0.959163
4274,0.000274,0.96079
4275,0.000275,0.96079
4276,0.000276,0.96079
4277,0.000277,0.96079
4278,0.000278,0.957537
4279,0.000279,0.954284
4280,0.00028,0.955911
4281,0.000281,0.952658
4282,0.000282,0.954284
4283,0.000283,0.954284
4284,0.000284,0.949406
4285,0.000285,0.949406
4286,0.000286,0.946153
4287,0.000287,0.946153
4288,0.000288,0.944527
4289,0.000289,0.9429
4290,0.00029,0.941274
4291,0.000291,0.941274
4292,0.000292,0.938021
4293,0.000293,0.938021
4294,0.000294,0.938021
4295,0.000295,0.934769
4296,0.000296,0.933143
4297,0.000297,0.931516
4298,0.000298,0.92989
4299,0.000299,0.926637
4300,0.0003,0.923385
4301,0.000301,0.923385
4302,0.000302,0.921758
4303,0.000303,0.918506
4304,0.000304,0.918506
4305,0.000305,0.915253
4306,0.000306,0.912001
4307,0.000307,0.912001
4308,0.000308,0.907122
4309,0.000309,0.905495
4310,0.00031,0.903869
4311,0.000311,0.903869
4312,0.000312,0.900617
4313,0.000313,0.897364
4314,0.000314,0.894111
4315,0.000315,0.892485
4316,0.000316,0.889232
4317,0.000317,0.887606
4318,0.000318,0.887606
4319,0.000319,0.882727
4320,0.00032,0.879475
4321,0.000321,0.876222
4322,0.000322,0.872969
4323,0.000323,0.871343
4324,0.000324,0.871343
4325,0.000325,0.868091
4326,0.000326,0.864838
4327,0.000327,0.861585
4328,0.000328,0.856706
4329,0.000329,0.853454
4330,0.00033,0.853454
4331,0.000331,0.850201
4332,0.000332,0.846949
4333,0.000333,0.843696
4334,0.000334,0.840443
4335,0.000335,0.837191
4336,0.000336,0.832312
4337,0.000337,0.830686
4338,0.000338,0.830686
4339,0.000339,0.825807
4340,0.00034,0.82418
4341,0.000341,0.817675
4342,0.000342,0.816049
4343,0.000343,0.807917
4344,0.000344,0.809544
4345,0.000345,0.804665
4346,0.000346,0.803038
4347,0.000347,0.79816
4348,0.000348,0.794907
4349,0.000349,0.793281
4350,0.00035,0.786775
4351,0.000351,0.783523
4352,0.000352,0.78027
4353,0.000353,0.777018
4354,0.000354,0.773765
4355,0.000355,0.770512
4356,0.000356,0.765634
4357,0.000357,0.762381
4358,0.000358,0.759128
4359,0.000359,0.754249
4360,0.00036,0.750997
4361,0.000361,0.746118
4362,0.000362,0.742865
4363,0.000363,0.737986
4364,0.000364,0.734734
4365,0.000365,0.729855
4366,0.000366,0.728229
4367,0.000367,0.724976
4368,0.000368,0.720097
4369,0.000369,0.713592
4370,0.00037,0.710339
4371,0.000371,0.70546
4372,0.000372,0.702208
4373,0.000373,0.698955
4374,0.000374,0.695702
4375,0.000375,0.690824
4376,0.000376,0.684318
4377,0.000377,0.679439
4378,0.000378,0.676187
4379,0.000379,0.672934
4380,0.00038,0.668055
4381,0.000381,0.664803
4382,0.000382,0.659924
4383,0.000383,0.655045
4384,0.000384,0.64854
4385,0.000385,0.645287
4386,0.000386,0.640408
4387,0.000387,0.637156
4388,0.000388,0.632277
4389,0.000389,0.625772
4390,0.00039,0.619266
4391,0.000391,0.616014
4392,0.000392,0.611135
4393,0.000393,0.607882
4394,0.000394,0.60463
4395,0.000395,0.598124
4396,0.000396,0.593246
4397,0.000397,0.588367
4398,0.000398,0.581861
4399,0.000399,0.580235
4400,0.0004,0.57373
4401,0.000401,0.570477
4402,0.000402,0.562346
4403,0.000403,0.559093
4404,0.000404,0.552588
4405,0.000405,0.547709
4406,0.000406,0.544456
4407,0.000407,0.537951
4408,0.000408,0.534699
4409,0.000409,0.528193
4410,0.00041,0.523315
4411,0.000411,0.516809
4412,0.000412,0.51193
4413,0.000413,0.508678
4414,0.000414,0.502173
4415,0.000415,0.497294
4416,0.000416,0.490788
4417,0.000417,0.487536
4418,0.000418,0.479404
4419,0.000419,0.476152
4420,0.00042,0.471273
4421,0.000421,0.466394
4422,0.000422,0.459889
4423,0.000423,0.45501
4424,0.000424,0.450131
4425,0.000425,0.443626
4426,0.000426,0.43712
4427,0.000427,0.433868
4428,0.000428,0.428989
4429,0.000429,0.422484
4430,0.00043,0.415979
4431,0.000431,0.409473
4432,0.000432,0.406221
4433,0.000433,0.399716
4434,0.000434,0.39321
4435,0.000435,0.389958
4436,0.000436,0.383453
4437,0.000437,0.376947
4438,0.000438,0.370442
4439,0.000439,0.363937
4440,0.00044,0.359058
4441,0.000441,0.355805
4442,0.000442,0.3493
4443,0.000443,0.342795
4444,0.000444,0.339542
4445,0.000445,0.331411
4446,0.000446,0.324906
4447,0.000447,0.320027
4448,0.000448,0.315148
4449,0.000449,0.310269
4450,0.00045,0.303764
4451,0.000451,0.300511
4452,0.000452,0.290753
4453,0.000453,0.284248
4454,0.000454,0.279369
4455,0.000455,0.27449
4456,0.000456,0.267985
4457,0.000457,0.263106
4458,0.000458,0.256601
4459,0.000459,0.250096
4460,0.00046,0.243591
4461,0.000461,0.238712
4462,0.000462,0.232206
4463,0.000463,0.227328
4464,0.000464,0.220822
4465,0.000465,0.214317
4466,0.000466,0.207812
4467,0.000467,0.201307
4468,0.000468,0.194802
4469,0.000469,0.189923
4470,0.00047,0.18667
4471,0.000471,0.180165
4472,0.000472,0.172033
4473,0.000473,0.165528
4474,0.000474,0.157397
4475,0.000475,0.154144
4476,0.000476,0.149265
4477,0.000477,0.144386
4478,0.000478,0.137881
4479,0.000479,0.129749
4480,0.00048,0.123244
4481,0.000481,0.116739
4482,0.000482,0.108608
4483,0.000483,0.106981
4484,0.000484,0.100476
4485,0.000485,0.0939708
4486,0.000486,0.0890919
4487,0.000487,0.0793341
4488,0.000488,0.0728289
4489,0.000489,0.0695763
4490,0.00049,0.0630711
4491,0.000491,0.0598185
4492,0.000492,0.051687
4493,0.000493,0.0468081
4494,0.000494,0.0370502
4495,0.000495,0.030545
4496,0.000496,0.0256661
4497,0.000497,0.0224135
4498,0.000498,0.0159083
4499,0.000499,0.00940311
4500,0.0005,0.0045242
4501,0.000501,-0.00523361
4502,0.000502,-0.00848621
4503,0.000503,-0.0166177
4504,0.000504,-0.0214966
4505,0.000505,-0.0247492
4506,0.000506,-0.0328807
4507,0.000507,-0.0393859
4508,0.000508,-0.0458912
4509,0.000509,-0.0523964
4510,0.00051,-0.0589016
4511,0.000511,-0.0637805
4512,0.000512,-0.0686594
4513,0.000513,-0.0751646
4514,0.000514,-0.0816698
4515,0.000515,-0.088175
4516,0.000516,-0.0946802
4517,0.000517,-0.101185
4518,0.000518,-0.107691
4519,0.000519,-0.11257
4520,0.00052,-0.117448
4521,0.000521,-0.123954
4522,0.000522,-0.130459
4523,0.000523,-0.136964
4524,0.000524,-0.143469
4525,0.000525,-0.149974
4526,0.000526,-0.15648
4527,0.000527,-0.162985
4528,0.000528,-0.166238
4529,0.000529,-0.172743
4530,0.00053,-0.179248
4531,0.000531,-0.184127
4532,0.000532,-0.192258
4533,0.000533,-0.197137
4534,0.000534,-0.205269
4535,0.000535,-0.208521
4536,0.000536,-0.215027
4537,0.000537,-0.223158
4538,0.000538,-0.226411
4539,0.000539,-0.232916
4540,0.00054,-0.239421
4541,0.000541,-0.245926
4542,0.000542,-0.252432
4543,0.000543,-0.258937
4544,0.000544,-0.262189
4545,0.000545,-0.268695
4546,0.000546,-0.2752
4547,0.000547,-0.281705
4548,0.000548,-0.286584
4549,0.000549,-0.294715
4550,0.00055,-0.299594
4551,0.000551,-0.302847
4552,0.000552,-0.309352
4553,0.000553,-0.315857
4554,0.000554,-0.322362
4555,0.000555,-0.327241
4556,0.000556,-0.33212
4557,0.000557,-0.338625
4558,0.000558,-0.341878
4559,0.000559,-0.35001
4560,0.00056,-0.356515
4561,0.000561,-0.36302
4562,0.000562,-0.369525
4563,0.000563,-0.374404
4564,0.000564,-0.377657
4565,0.000565,-0.384162
4566,0.000566,-0.389041
4567,0.000567,-0.395546
4568,0.000568,-0.402051
4569,0.000569,-0.40693
4570,0.00057,-0.411809
4571,0.000571,-0.416688
4572,0.000572,-0.423193
4573,0.000573,-0.429698
4574,0.000574,-0.436204
4575,0.000575,-0.441083
4576,0.000576,-0.445961
4577,0.000577,-0.449214
4578,0.000578,-0.455719
4579,0.000579,-0.460598
4580,0.00058,-0.467103
4581,0.000581,-0.473609
4582,0.000582,-0.478487
4583,0.000583,-0.483366
4584,0.000584,-0.488245
4585,0.000585,-0.493124
4586,0.000586,-0.499629
4587,0.000587,-0.502882
4588,0.000588,-0.509387
4589,0.000589,-0.515892
4590,0.00059,-0.519145
4591,0.000591,-0.52565
4592,0.000592,-0.528903
4593,0.000593,-0.535408
4594,0.000594,-0.541913
4595,0.000595,-0.545166
4596,0.000596,-0.551671
4597,0.000597,-0.554924
4598,0.000598,-0.559803
4599,0.000599,-0.564681
4600,0.0006,-0.56956
4601,0.000601,-0.576066
4602,0.000602,-0.579318
4603,0.000603,-0.584197
4604,0.000604,-0.589076
4605,0.000605,-0.593955
4606,0.000606,-0.598834
4607,0.000607,-0.603713
4608,0.000608,-0.608592
4609,0.000609,-0.61347
4610,0.00061,-0.618349
4611,0.000611,-0.624855
4612,0.000612,-0.628107
4613,0.000613,-0.63136
4614,0.000614,-0.636239
4615,0.000615,-0.641118
4616,0.000616,-0.645997
4617,0.000617,-0.652502
4618,0.000618,-0.655754
4619,0.000619,-0.659007
4620,0.00062,-0.66226
4621,0.000621,-0.667138
4622,0.000622,-0.673644
4623,0.000623,-0.678523
4624,0.000624,-0.683402
4625,0.000625,-0.683402
4626,0.000626,-0.691533
4627,0.000627,-0.693159
4628,0.000628,-0.698038
4629,0.000629,-0.702917
4630,0.00063,-0.707796
4631,0.000631,-0.711049
4632,0.000632,-0.717554
4633,0.000633,-0.71918
4634,0.000634,-0.722433
4635,0.000635,-0.727312
4636,0.000636,-0.730564
4637,0.000637,-0.737069
4638,0.000638,-0.740322
4639,0.000639,-0.743575
4640,0.00064,-0.746827
4641,0.000641,-0.751706
4642,0.000642,-0.754959
4643,0.000643,-0.759838
4644,0.000644,-0.76309
4645,0.000645,-0.767969
4646,0.000646,-0.771222
4647,0.000647,-0.776101
4648,0.000648,-0.779353
4649,0.000649,-0.782606
4650,0.00065,-0.784232
4651,0.000651,-0.790737
4652,0.000652,-0.79399
4653,0.000653,-0.797243
4654,0.000654,-0.800495
4655,0.000655,-0.803748
4656,0.000656,-0.807
4657,0.000657,-0.810253
4658,0.000658,-0.813506
4659,0.000659,-0.818385
4660,0.00066,-0.820011
4661,0.000661,-0.823263
4662,0.000662,-0.823263
4663,0.000663,-0.829769
4664,0.000664,-0.833021
4665,0.000665,-0.836274
4666,0.000666,-0.841153
4667,0.000667,-0.844405
4668,0.000668,-0.844405
4669,0.000669,-0.847658
4670,0.00067,-0.852537
4671,0.000671,-0.854163
4672,0.000672,-0.855789
4673,0.000673,-0.860668
4674,0.000674,-0.863921
4675,0.000675,-0.863921
4676,0.000676,-0.8688
4677,0.000677,-0.8688
4678,0.000678,-0.873679
4679,0.000679,-0.875305
4680,0.00068,-0.88181
4681,0.000681,-0.883437
4682,0.000682,-0.885063
4683,0.000683,-0.888316
4684,0.000684,-0.889942
4685,0.000685,-0.893194
4686,0.000686,-0.894821
4687,0.000687,-0.898073
4688,0.000688,-0.8997
4689,0.000689,-0.902952
4690,0.00069,-0.902952
4691,0.000691,-0.906205
4692,0.000692,-0.907831
4693,0.000693,-0.911084
4694,0.000694,-0.91271
4695,0.000695,-0.915963
4696,0.000696,-0.919215
4697,0.000697,-0.919215
4698,0.000698,-0.920842
4699,0.000699,-0.924094
4700,0.0007,-0.925721
4701,0.000701,-0.925721
4702,0.000702,-0.928973
4703,0.000703,-0.930599
4704,0.000704,-0.930599
4705,0.000705,-0.933852
4706,0.000706,-0.935478
4707,0.000707,-0.938731
4708,0.000708,-0.937105
4709,0.000709,-0.941984
4710,0.00071,-0.941984
4711,0.000711,-0.941984
4712,0.000712,-0.945236
4713,0.000713,-0.946862
4714,0.000714,-0.946862
4715,0.000715,-0.951741
4716,0.000716,-0.948489
4717,0.000717,-0.951741
4718,0.000718,-0.953368
4719,0.000719,-0.953368
4720,0.00072,-0.95662
4721,0.000721,-0.95662
4722,0.000722,-0.95662
4723,0.000723,-0.959873
4724,0.000724,-0.958247
4725,0.000725,-0.961499
4726,0.000726,-0.961499
4727,0.000727,-0.961499
4728,0.000728,-0.963125
4729,0.000729,-0.964752
4730,0.00073,-0.964752
4731,0.000731,-0.963125
4732,0.000732,-0.968004
4733,0.000733,-0.968004
4734,0.000734,-0.968004
4735,0.000735,-0.969631
4736,0.000736,-0.968004
4737,0.000737,-0.971257
4738,0.000738,-0.971257
4739,0.000739,-0.971257
4740,0.00074,-0.971257
4741,0.000741,-0.971257
4742,0.000742,-0.972883
4743,0.000743,-0.972883
4744,0.000744,-0.972883
4745,0.000745,-0.971257
4746,0.000746,-0.97451
4747,0.000747,-0.97451
4748,0.000748,-0.972883
4749,0.000749,-0.97451
4750,0.00075,-0.97451
4751,0.000751,-0.97451
4752,0.000752,-0.97451
4753,0.000753,-0.97451
4754,0.000754,-0.97451
4755,0.000755,-0.97451
4756,0.000756,-0.972883
4757,0.000757,-0.971257
4758,0.000758,-0.971257
4759,0.000759,-0.971257
4760,0.00076,-0.971257
4761,0.000761,-0.971257
4762,0.000762,-0.969631
4763,0.000763,-0.972883
4764,0.000764,-0.969631
4765,0.000765,-0.968004
4766,0.000766,-0.968004
4767,0.000767,-0.966378
4768,0.000768,-0.969631
4769,0.000769,-0.964752
4770,0.00077,-0.966378
4771,0.000771,-0.964752
4772,0.000772,-0.964752
4773,0.000773,-0.961499
4774,0.000774,-0.963125
4775,0.000775,-0.963125
4776,0.000776,-0.958247
4777,0.000777,-0.961499
4778,0.000778,-0.959873
4779,0.000779,-0.958247
4780,0.00078,-0.95662
4781,0.000781,-0.954994
4782,0.000782,-0.954994
4783,0.000783,-0.953368
4784,0.000784,-0.950115
4785,0.000785,-0.951741
4786,0.000786,-0.948489
4787,0.000787,-0.948489
4788,0.000788,-0.946862
4789,0.000789,-0.945236
4790,0.00079,-0.945236
4791,0.000791,-0.941984
4792,0.000792,-0.938731
4793,0.000793,-0.940357
4794,0.000794,-0.937105
4795,0.000795,-0.937105
4796,0.000796,-0.935478
4797,0.000797,-0.933852
4798,0.000798,-0.930599
4799,0.000799,-0.928973
4800,0.0008,-0.927347
4801,0.000801,-0.924094
4802,0.000802,-0.924094
4803,0.000803,-0.920842
4804,0.000804,-0.919215
4805,0.000805,-0.917589
4806,0.000806,-0.914336
4807,0.000807,-0.914336
4808,0.000808,-0.911084
4809,0.000809,-0.909457
4810,0.00081,-0.906205
4811,0.000811,-0.904579
4812,0.000812,-0.901326
4813,0.000813,-0.8997
4814,0.000814,-0.896447
4815,0.000815,-0.894821
4816,0.000816,-0.893194
4817,0.000817,-0.889942
4818,0.000818,-0.888316
4819,0.000819,-0.885063
4820,0.00082,-0.88181
4821,0.000821,-0.878558
4822,0.000822,-0.876931
4823,0.000823,-0.872053
4824,0.000824,-0.872053
4825,0.000825,-0.8688
4826,0.000826,-0.863921
4827,0.000827,-0.863921
4828,0.000828,-0.860668
4829,0.000829,-0.857416
4830,0.00083,-0.855789
4831,0.000831,-0.852537
4832,0.000832,-0.846032
4833,0.000833,-0.842779
4834,0.000834,-0.842779
4835,0.000835,-0.841153
4836,0.000836,-0.8379
4837,0.000837,-0.833021
4838,0.000838,-0.829769
4839,0.000839,-0.826516
4840,0.00084,-0.823263
4841,0.000841,-0.820011
4842,0.000842,-0.818385
4843,0.000843,-0.815132
4844,0.000844,-0.811879
4845,0.000845,-0.807
4846,0.000846,-0.803748
4847,0.000847,-0.800495
4848,0.000848,-0.795616
4849,0.000849,-0.792364
4850,0.00085,-0.790737
4851,0.000851,-0.787485
4852,0.000852,-0.78098
4853,0.000853,-0.777727
4854,0.000854,-0.774474
4855,0.000855,-0.771222
4856,0.000856,-0.767969
4857,0.000857,-0.76309
4858,0.000858,-0.761464
4859,0.000859,-0.754959
4860,0.00086,-0.75008
4861,0.000861,-0.745201
4862,0.000862,-0.745201
4863,0.000863,-0.740322
4864,0.000864,-0.737069
4865,0.000865,-0.733817
4866,0.000866,-0.727312
4867,0.000867,-0.724059
4868,0.000868,-0.717554
4869,0.000869,-0.714301
4870,0.00087,-0.711049
4871,0.000871,-0.707796
4872,0.000872,-0.702917
4873,0.000873,-0.699665
4874,0.000874,-0.693159
4875,0.000875,-0.689907
4876,0.000876,-0.685028
4877,0.000877,-0.681775
4878,0.000878,-0.680149
4879,0.000879,-0.673644
4880,0.00088,-0.668765
4881,0.000881,-0.66226
4882,0.000882,-0.657381
4883,0.000883,-0.654128
4884,0.000884,-0.650875
4885,0.000885,-0.647623
4886,0.000886,-0.64437
4887,0.000887,-0.636239
4888,0.000888,-0.632986
4889,0.000889,-0.624855
4890,0.00089,-0.621602
4891,0.000891,-0.618349
4892,0.000892,-0.615097
4893,0.000893,-0.610218
4894,0.000894,-0.603713
4895,0.000895,-0.598834
4896,0.000896,-0.592329
4897,0.000897,-0.58745
4898,0.000898,-0.584197
4899,0.000899,-0.580944
4900,0.0009,-0.577692
4901,0.000901,-0.56956
4902,0.000902,-0.563055
4903,0.000903,-0.558176
4904,0.000904,-0.554924
4905,0.000905,-0.548418
4906,0.000906,-0.545166
4907,0.000907,-0.541913
4908,0.000908,-0.533782
4909,0.000909,-0.527277
4910,0.00091,-0.522398
4911,0.000911,-0.517519
4912,0.000912,-0.514266
4913,0.000913,-0.511014
4914,0.000914,-0.504508
4915,0.000915,-0.498003
4916,0.000916,-0.491498
4917,0.000917,-0.484993
4918,0.000918,-0.48174
4919,0.000919,-0.476861
4920,0.00092,-0.471982
4921,0.000921,-0.46873
4922,0.000922,-0.462224
4923,0.000923,-0.455719
4924,0.000924,-0.449214
4925,0.000925,-0.444335
4926,0.000926,-0.43783
4927,0.000927,-0.436204
4928,0.000928,-0.429698
4929,0.000929,-0.423193
4930,0.00093,-0.416688
4931,0.000931,-0.410183
4932,0.000932,-0.405304
4933,0.000933,-0.400425
4934,0.000934,-0.397172
4935,0.000935,-0.390667
4936,0.000936,-0.384162
4937,0.000937,-0.377657
4938,0.000938,-0.371152
4939,0.000939,-0.366273
4940,0.00094,-0.361394
4941,0.000941,-0.358141
4942,0.000942,-0.351636
4943,0.000943,-0.345131
4944,0.000944,-0.338625
4945,0.000945,-0.330494
4946,0.000946,-0.327241
4947,0.000947,-0.320736
4948,0.000948,-0.317484
4949,0.000949,-0.309352
4950,0.00095,-0.306099
4951,0.000951,-0.296342
4952,0.000952,-0.291463
4953,0.000953,-0.284958
4954,0.000954,-0.280079
4955,0.000955,-0.276826
4956,0.000956,-0.268695
4957,0.000957,-0.263816
4958,0.000958,-0.25731
4959,0.000959,-0.247553
4960,0.00096,-0.2443
4961,0.000961,-0.239421
4962,0.000962,-0.234542
4963,0.000963,-0.23129
4964,0.000964,-0.221532
4965,0.000965,-0.215027
4966,0.000966,-0.208521
4967,0.000967,-0.202016
4968,0.000968,-0.195511
4969,0.000969,-0.192258
4970,0.00097,-0.189006
4971,0.000971,-0.179248
4972,0.000972,-0.172743
4973,0.000973,-0.166238
4974,0.000974,-0.159732
4975,0.000975,-0.154853
4976,0.000976,-0.149974
4977,0.000977,-0.145096
4978,0.000978,-0.140217
4979,0.000979,-0.132085
4980,0.00098,-0.123954
4981,0.000981,-0.117448
4982,0.000982,-0.114196
4983,0.000983,-0.107691
4984,0.000984,-0.102812
4985,0.000985,-0.0963065
4986,0.000986,-0.088175
4987,0.000987,-0.0816698
4988,0.000988,-0.0751646
4989,0.000989,-0.0702857
4990,0.00099,-0.0670331
4991,0.000991,-0.0605279
4992,0.000992,-0.0540227
4993,0.000993,-0.0475175
4994,0.000994,-0.0393859
4995,0.000995,-0.0296281
4996,0.000996,-0.0263755
4997,0.000997,-0.0231229
4998,0.000998,-0.0166177
4999,0.000999,-0.0117388
5000,0.001,-0.00360731
5001,0.001001,0.0028979
5002,0.001002,0.00940311
5003,0.001003,0.0159083
5004,0.001004,0.0207872
5005,0.001005,0.0240398
5006,0.001006,0.030545
5007,0.001007,0.0370502
5008,0.001008,0.0468081
5009,0.001009,0.051687
5010,0.00101,0.0598185
5011,0.001011,0.0630711
5012,0.001012,0.06795
5013,0.001013,0.0744552
5014,0.001014,0.0809604
5015,0.001015,0.0874656
5016,0.001016,0.0939708
5017,0.001017,0.100476
5018,0.001018,0.105355
5019,0.001019,0.110234
5020,0.00102,0.116739
5021,0.001021,0.123244
5022,0.001022,0.131376
5023,0.001023,0.137881
5024,0.001024,0.144386
5025,0.001025,0.149265
5026,0.001026,0.152518
5027,0.001027,0.160649
5028,0.001028,0.167154
5029,0.001029,0.17366
5030,0.00103,0.180165
5031,0.001031,0.18667
5032,0.001032,0.189923
5033,0.001033,0.196428
5034,0.001034,0.201307
5035,0.001035,0.207812
5036,0.001036,0.215943
5037,0.001037,0.222449
5038,0.001038,0.228954
5039,0.001039,0.233833
5040,0.00104,0.238712
5041,0.001041,0.245217
5042,0.001042,0.250096
5043,0.001043,0.258227
5044,0.001044,0.263106
5045,0.001045,0.269611
5046,0.001046,0.27449
5047,0.001047,0.279369
5048,0.001048,0.282622
5049,0.001049,0.29238
5050,0.00105,0.298885
5051,0.001051,0.30539
5052,0.001052,0.310269
5053,0.001053,0.315148
5054,0.001054,0.320027
5055,0.001055,0.324906
5056,0.001056,0.331411
5057,0.001057,0.337916
5058,0.001058,0.346048
5059,0.001059,0.350927
5060,0.00106,0.354179
5061,0.001061,0.359058
5062,0.001062,0.365563
5063,0.001063,0.372068
5064,0.001064,0.378574
5065,0.001065,0.383453
5066,0.001066,0.389958
5067,0.001067,0.396463
5068,0.001068,0.399716
5069,0.001069,0.406221
5070,0.00107,0.412726
5071,0.001071,0.417605
5072,0.001072,0.42411
5073,0.001073,0.427363
5074,0.001074,0.433868
5075,0.001075,0.438747
5076,0.001076,0.441999
5077,0.001077,0.450131
5078,0.001078,0.456636
5079,0.001079,0.459889
5080,0.00108,0.466394
5081,0.001081,0.472899
5082,0.001082,0.474525
5083,0.001083,0.481031
5084,0.001084,0.48591
5085,0.001085,0.492415
5086,0.001086,0.495667
5087,0.001087,0.502173
5088,0.001088,0.508678
5089,0.001089,0.51193
5090,0.00109,0.518436
5091,0.001091,0.521688
5092,0.001092,0.52982
5093,0.001093,0.534699
5094,0.001094,0.537951
5095,0.001095,0.546083
5096,0.001096,0.549335
5097,0.001097,0.552588
5098,0.001098,0.559093
5099,0.001099,0.562346
5100,0.0011,0.567225
5101,0.001101,0.57373
5102,0.001102,0.580235
5103,0.001103,0.581861
5104,0.001104,0.588367
5105,0.001105,0.591619
5106,0.001106,0.596498
5107,0.001107,0.603003
5108,0.001108,0.607882
5109,0.001109,0.614387
5110,0.00111,0.61764
5111,0.001111,0.620893
5112,0.001112,0.624145
5113,0.001113,0.632277
5114,0.001114,0.635529
5115,0.001115,0.642035
5116,0.001116,0.645287
5117,0.001117,0.651792
5118,0.001118,0.655045
5119,0.001119,0.658298
5120,0.00112,0.66155
5121,0.001121,0.666429
5122,0.001122,0.672934
5123,0.001123,0.677813
5124,0.001124,0.679439
5125,0.001125,0.685945
5126,0.001126,0.689197
5127,0.001127,0.69245
5128,0.001128,0.695702
5129,0.001129,0.702208
5130,0.00113,0.707087
5131,0.001131,0.710339
5132,0.001132,0.715218
5133,0.001133,0.720097
5134,0.001134,0.72335
5135,0.001135,0.726602
5136,0.001136,0.729855
5137,0.001137,0.734734
5138,0.001138,0.737986
5139,0.001139,0.742865
5140,0.00114,0.747744
5141,0.001141,0.747744
5142,0.001142,0.754249
5143,0.001143,0.759128
5144,0.001144,0.762381
5145,0.001145,0.76726
5146,0.001146,0.770512
5147,0.001147,0.773765
5148,0.001148,0.777018
5149,0.001149,0.78027
5150,0.00115,0.786775
5151,0.001151,0.790028
5152,0.001152,0.793281
5153,0.001153,0.794907
5154,0.001154,0.801412
5155,0.001155,0.801412
5156,0.001156,0.804665
5157,0.001157,0.809544
5158,0.001158,0.812796
5159,0.001159,0.816049
5160,0.00116,0.819301
5161,0.001161,0.82418
5162,0.001162,0.82418
5163,0.001163,0.827433
5164,0.001164,0.830686
5165,0.001165,0.833938
5166,0.001166,0.840443
5167,0.001167,0.84207
5168,0.001168,0.845322
5169,0.001169,0.848575
5170,0.00117,0.848575
5171,0.001171,0.851828
5172,0.001172,0.85508
5173,0.001173,0.858333
5174,0.001174,0.861585
5175,0.001175,0.864838
5176,0.001176,0.868091
5177,0.001177,0.869717
5178,0.001178,0.874596
5179,0.001179,0.874596
5180,0.00118,0.877848
5181,0.001181,0.881101
5182,0.001182,0.882727
5183,0.001183,0.887606
5184,0.001184,0.887606
5185,0.001185,0.889232
5186,0.001186,0.894111
5187,0.001187,0.894111
5188,0.001188,0.900617
5189,0.001189,0.900617
5190,0.00119,0.902243
5191,0.001191,0.905495
5192,0.001192,0.908748
5193,0.001193,0.912001
5194,0.001194,0.913627
5195,0.001195,0.915253
5196,0.001196,0.91688
5197,0.001197,0.91688
5198,0.001198,0.920132
5199,0.001199,0.921758
5200,0.0012,0.925011
5201,0.001201,0.925011
5202,0.001202,0.928264
5203,0.001203,0.928264
5204,0.001204,0.931516
5205,0.001205,0.931516
5206,0.001206,0.934769
5207,0.001207,0.936395
5208,0.001208,0.936395
5209,0.001209,0.939648
5210,0.00121,0.939648
5211,0.001211,0.9429
5212,0.001212,0.9429
5213,0.001213,0.946153
5214,0.001214,0.946153
5215,0.001215,0.946153
5216,0.001216,0.949406
5217,0.001217,0.951032
5218,0.001218,0.951032
5219,0.001219,0.951032
5220,0.00122,0.954284
5221,0.001221,0.952658
5222,0.001222,0.955911
5223,0.001223,0.959163
5224,0.001224,0.957537
5225,0.001225,0.96079
5226,0.001226,0.959163
5227,0.001227,0.959163
5228,0.001228,0.962416
5229,0.001229,0.964042
5230,0.00123,0.964042
5231,0.001231,0.964042
5232,0.001232,0.965669
5233,0.001233,0.965669
5234,0.001234,0.965669
5235,0.001235,0.968921
5236,0.001236,0.968921
5237,0.001237,0.968921
5238,0.001238,0.968921
5239,0.001239,0.968921
5240,0.00124,0.968921
5241,0.001241,0.968921
5242,0.001242,0.972174
5243,0.001243,0.970548
5244,0.001244,0.970548
5245,0.001245,0.972174
5246,0.001246,0.972174
5247,0.001247,0.972174
5248,0.001248,0.972174
5249,0.001249,0.972174
5250,0.00125,0.972174
5251,0.001251,0.972174
5252,0.001252,0.972174
5253,0.001253,0.9738
5254,0.001254,0.9738
5255,0.001255,0.970548
5256,0.001256,0.970548
5257,0.001257,0.970548
5258,0.001258,0.968921
5259,0.001259,0.972174
5260,0.00126,0.968921
5261,0.001261,0.970548
5262,0.001262,0.970548
5263,0.001263,0.968921
5264,0.001264,0.968921
5265,0.001265,0.967295
5266,0.001266,0.967295
5267,0.001267,0.967295
5268,0.001268,0.967295
5269,0.001269,0.964042
5270,0.00127,0.964042
5271,0.001271,0.962416
5272,0.001272,0.962416
5273,0.001273,0.96079
5274,0.001274,0.964042
5275,0.001275,0.964042
5276,0.001276,0.96079
5277,0.001277,0.959163
5278,0.001278,0.959163
5279,0.001279,0.955911
5280,0.00128,0.957537
5281,0.001281,0.954284
5282,0.001282,0.954284
5283,0.001283,0.952658
5284,0.001284,0.949406
5285,0.001285,0.947779
5286,0.001286,0.947779
5287,0.001287,0.947779
5288,0.001288,0.944527
5289,0.001289,0.944527
5290,0.00129,0.941274
5291,0.001291,0.941274
5292,0.001292,0.938021
5293,0.001293,0.936395
5294,0.001294,0.934769
5295,0.001295,0.936395
5296,0.001296,0.933143
5297,0.001297,0.931516
5298,0.001298,0.928264
5299,0.001299,0.925011
5300,0.0013,0.925011
5301,0.001301,0.925011
5302,0.001302,0.921758
5303,0.001303,0.918506
5304,0.001304,0.918506
5305,0.001305,0.913627
5306,0.001306,0.913627
5307,0.001307,0.912001
5308,0.001308,0.908748
5309,0.001309,0.907122
5310,0.00131,0.905495
5311,0.001311,0.902243
5312,0.001312,0.902243
5313,0.001313,0.897364
5314,0.001314,0.894111
5315,0.001315,0.894111
5316,0.001316,0.889232
5317,0.001317,0.889232
5318,0.001318,0.88598
5319,0.001319,0.884354
5320,0.00132,0.881101
5321,0.001321,0.876222
5322,0.001322,0.876222
5323,0.001323,0.872969
5324,0.001324,0.869717
5325,0.001325,0.866464
5326,0.001326,0.864838
5327,0.001327,0.861585
5328,0.001328,0.858333
5329,0.001329,0.856706
5330,0.00133,0.853454
5331,0.001331,0.850201
5332,0.001332,0.846949
5333,0.001333,0.843696
5334,0.001334,0.840443
5335,0.001335,0.837191
5336,0.001336,0.833938
5337,0.001337,0.830686
5338,0.001338,0.829059
5339,0.001339,0.82418
5340,0.00134,0.82418
5341,0.001341,0.819301
5342,0.001342,0.814423
5343,0.001343,0.812796
5344,0.001344,0.809544
5345,0.001345,0.804665
5346,0.001346,0.801412
5347,0.001347,0.796533
5348,0.001348,0.796533
5349,0.001349,0.791654
5350,0.00135,0.788402
5351,0.001351,0.783523
5352,0.001352,0.78027
5353,0.001353,0.777018
5354,0.001354,0.773765
5355,0.001355,0.770512
5356,0.001356,0.765634
5357,0.001357,0.762381
5358,0.001358,0.759128
5359,0.001359,0.754249
5360,0.00136,0.74937
5361,0.001361,0.744492
5362,0.001362,0.742865
5363,0.001363,0.739613
5364,0.001364,0.734734
5365,0.001365,0.729855
5366,0.001366,0.726602
5367,0.001367,0.721723
5368,0.001368,0.718471
5369,0.001369,0.713592
5370,0.00137,0.710339
5371,0.001371,0.70546
5372,0.001372,0.702208
5373,0.001373,0.698955
5374,0.001374,0.69245
5375,0.001375,0.690824
5376,0.001376,0.685945
5377,0.001377,0.681066
5378,0.001378,0.674561
5379,0.001379,0.671308
5380,0.00138,0.668055
5381,0.001381,0.663176
5382,0.001382,0.659924
5383,0.001383,0.653419
5384,0.001384,0.646913
5385,0.001385,0.645287
5386,0.001386,0.642035
5387,0.001387,0.637156
5388,0.001388,0.632277
5389,0.001389,0.627398
5390,0.00139,0.620893
5391,0.001391,0.616014
5392,0.001392,0.612761
5393,0.001393,0.607882
5394,0.001394,0.601377
5395,0.001395,0.598124
5396,0.001396,0.593246
5397,0.001397,0.58674
5398,0.001398,0.583488
5399,0.001399,0.578609
5400,0.0014,0.572104
5401,0.001401,0.568851
5402,0.001402,0.563972
5403,0.001403,0.559093
5404,0.001404,0.552588
5405,0.001405,0.546083
5406,0.001406,0.54283
5407,0.001407,0.537951
5408,0.001408,0.534699
5409,0.001409,0.528193
5410,0.00141,0.521688
5411,0.001411,0.518436
5412,0.001412,0.51193
5413,0.001413,0.505425
5414,0.001414,0.502173
5415,0.001415,0.497294
5416,0.001416,0.494041
5417,0.001417,0.487536
5418,0.001418,0.479404
5419,0.001419,0.476152
5420,0.00142,0.469647
5421,0.001421,0.464768
5422,0.001422,0.461515
5423,0.001423,0.456636
5424,0.001424,0.450131
5425,0.001425,0.441999
5426,0.001426,0.438747
5427,0.001427,0.430615
5428,0.001428,0.428989
5429,0.001429,0.422484
5430,0.00143,0.415979
5431,0.001431,0.412726
5432,0.001432,0.404594
5433,0.001433,0.399716
5434,0.001434,0.39321
5435,0.001435,0.386705
5436,0.001436,0.383453
5437,0.001437,0.376947
5438,0.001438,0.370442
5439,0.001439,0.365563
5440,0.00144,0.359058
5441,0.001441,0.352553
5442,0.001442,0.347674
5443,0.001443,0.342795
5444,0.001444,0.339542
5445,0.001445,0.333037
5446,0.001446,0.326532
5447,0.001447,0.320027
5448,0.001448,0.313522
5449,0.001449,0.308643
5450,0.00145,0.303764
5451,0.001451,0.297259
5452,0.001452,0.294006
5453,0.001453,0.285874
5454,0.001454,0.279369
5455,0.001455,0.272864
5456,0.001456,0.267985
5457,0.001457,0.259854
5458,0.001458,0.256601
5459,0.001459,0.251722
5460,0.00146,0.243591
5461,0.001461,0.237085
5462,0.001462,0.232206
5463,0.001463,0.225701
5464,0.001464,0.220822
5465,0.001465,0.214317
5466,0.001466,0.209438
5467,0.001467,0.202933
5468,0.001468,0.196428
5469,0.001469,0.188296
5470,0.00147,0.183417
5471,0.001471,0.178539
5472,0.001472,0.170407
5473,0.001473,0.167154
5474,0.001474,0.160649
5475,0.001475,0.154144
5476,0.001476,0.147639
5477,0.001477,0.141134
5478,0.001478,0.134628
5479,0.001479,0.131376
5480,0.00148,0.121618
5481,0.001481,0.118365
5482,0.001482,0.11186
5483,0.001483,0.103729
5484,0.001484,0.100476
5485,0.001485,0.0939708
5486,0.001486,0.0874656
5487,0.001487,0.0825867
5488,0.001488,0.0760815
5489,0.001489,0.0695763
5490,0.00149,0.0630711
5491,0.001491,0.0565659
5492,0.001492,0.0500607
5493,0.001493,0.0435554
5494,0.001494,0.0370502
5495,0.001495,0.030545
5496,0.001496,0.0256661
5497,0.001497,0.0224135
5498,0.001498,0.014282
5499,0.001499,0.00940311
5500,0.0015,0.0012716
5501,0.001501,-0.001981
5502,0.001502,-0.0101125
5503,0.001503,-0.0149914
5504,0.001504,-0.0214966
5505,0.001505,-0.0280018
5506,0.001506,-0.0328807
5507,0.001507,-0.0410122
5508,0.001508,-0.0458912
5509,0.001509,-0.0523964
5510,0.00151,-0.0589016
5511,0.001511,-0.0654068
5512,0.001512,-0.071912
5513,0.001513,-0.0751646
5514,0.001514,-0.0816698
5515,0.001515,-0.088175
5516,0.001516,-0.0946802
5517,0.001517,-0.101185
5518,0.001518,-0.106064
5519,0.001519,-0.115822
5520,0.00152,-0.119075
5521,0.001521,-0.12558
5522,0.001522,-0.132085
5523,0.001523,-0.13859
5524,0.001524,-0.143469
5525,0.001525,-0.149974
5526,0.001526,-0.15648
5527,0.001527,-0.162985
5528,0.001528,-0.167864
5529,0.001529,-0.174369
5530,0.00153,-0.182501
5531,0.001531,-0.185753
5532,0.001532,-0.190632
5533,0.001533,-0.198764
5534,0.001534,-0.202016
5535,0.001535,-0.208521
5536,0.001536,-0.215027
5537,0.001537,-0.221532
5538,0.001538,-0.228037
5539,0.001539,-0.232916
5540,0.00154,-0.239421
5541,0.001541,-0.245926
5542,0.001542,-0.250805
5543,0.001543,-0.25731
5544,0.001544,-0.263816
5545,0.001545,-0.270321
5546,0.001546,-0.276826
5547,0.001547,-0.281705
5548,0.001548,-0.286584
5549,0.001549,-0.293089
5550,0.00155,-0.299594
5551,0.001551,-0.306099
5552,0.001552,-0.309352
5553,0.001553,-0.317484
5554,0.001554,-0.320736
5555,0.001555,-0.327241
5556,0.001556,-0.333747
5557,0.001557,-0.340252
5558,0.001558,-0.343504
5559,0.001559,-0.351636
5560,0.00156,-0.354889
5561,0.001561,-0.361394
5562,0.001562,-0.367899
5563,0.001563,-0.371152
5564,0.001564,-0.379283
5565,0.001565,-0.385788
5566,0.001566,-0.390667
5567,0.001567,-0.397172
5568,0.001568,-0.400425
5569,0.001569,-0.40693
5570,0.00157,-0.411809
5571,0.001571,-0.418314
5572,0.001572,-0.423193
5573,0.001573,-0.429698
5574,0.001574,-0.434577
5575,0.001575,-0.43783
5576,0.001576,-0.444335
5577,0.001577,-0.449214
5578,0.001578,-0.455719
5579,0.001579,-0.462224
5580,0.00158,-0.46873
5581,0.001581,-0.473609
5582,0.001582,-0.476861
5583,0.001583,-0.48174
5584,0.001584,-0.488245
5585,0.001585,-0.49475
5586,0.001586,-0.501256
5587,0.001587,-0.504508
5588,0.001588,-0.51264
5589,0.001589,-0.514266
5590,0.00159,-0.520771
5591,0.001591,-0.524024
5592,0.001592,-0.528903
5593,0.001593,-0.535408
5594,0.001594,-0.541913
5595,0.001595,-0.548418
5596,0.001596,-0.551671
5597,0.001597,-0.55655
5598,0.001598,-0.563055
5599,0.001599,-0.564681
5600,0.0016,-0.571187
5601,0.001601,-0.576066
5602,0.001602,-0.582571
5603,0.001603,-0.585823
5604,0.001604,-0.589076
5605,0.001605,-0.593955
5606,0.001606,-0.598834
5607,0.001607,-0.603713
5608,0.001608,-0.610218
5609,0.001609,-0.61347
5610,0.00161,-0.618349
5611,0.001611,-0.623228
5612,0.001612,-0.626481
5613,0.001613,-0.632986
5614,0.001614,-0.637865
5615,0.001615,-0.642744
5616,0.001616,-0.647623
5617,0.001617,-0.652502
5618,0.001618,-0.655754
5619,0.001619,-0.660633
5620,0.00162,-0.663886
5621,0.001621,-0.668765
5622,0.001622,-0.673644
5623,0.001623,-0.680149
5624,0.001624,-0.681775
5625,0.001625,-0.686654
5626,0.001626,-0.689907
5627,0.001627,-0.694786
5628,0.001628,-0.699665
5629,0.001629,-0.704543
5630,0.00163,-0.709422
5631,0.001631,-0.711049
5632,0.001632,-0.715928
5633,0.001633,-0.720806
5634,0.001634,-0.724059
5635,0.001635,-0.730564
5636,0.001636,-0.732191
5637,0.001637,-0.735443
5638,0.001638,-0.741948
5639,0.001639,-0.745201
5640,0.00164,-0.75008
5641,0.001641,-0.753332
5642,0.001642,-0.756585
5643,0.001643,-0.759838
5644,0.001644,-0.76309
5645,0.001645,-0.769596
5646,0.001646,-0.772848
5647,0.001647,-0.776101
5648,0.001648,-0.779353
5649,0.001649,-0.78098
5650,0.00165,-0.787485
5651,0.001651,-0.790737
5652,0.001652,-0.79399
5653,0.001653,-0.797243
5654,0.001654,-0.800495
5655,0.001655,-0.802122
5656,0.001656,-0.808627
5657,0.001657,-0.811879
5658,0.001658,-0.813506
5659,0.001659,-0.820011
5660,0.00166,-0.820011
5661,0.001661,-0.823263
5662,0.001662,-0.826516
5663,0.001663,-0.829769
5664,0.001664,-0.831395
5665,0.001665,-0.8379
5666,0.001666,-0.841153
5667,0.001667,-0.844405
5668,0.001668,-0.844405
5669,0.001669,-0.849284
5670,0.00167,-0.852537
5671,0.001671,-0.855789
5672,0.001672,-0.859042
5673,0.001673,-0.859042
5674,0.001674,-0.863921
5675,0.001675,-0.863921
5676,0.001676,-0.8688
5677,0.001677,-0.870426
5678,0.001678,-0.873679
5679,0.001679,-0.878558
5680,0.00168,-0.88181
5681,0.001681,-0.88181
5682,0.001682,-0.885063
5683,0.001683,-0.886689
5684,0.001684,-0.888316
5685,0.001685,-0.893194
5686,0.001686,-0.896447
5687,0.001687,-0.8997
5688,0.001688,-0.8997
5689,0.001689,-0.901326
5690,0.00169,-0.904579
5691,0.001691,-0.906205
5692,0.001692,-0.909457
5693,0.001693,-0.91271
5694,0.001694,-0.914336
5695,0.001695,-0.915963
5696,0.001696,-0.917589
5697,0.001697,-0.917589
5698,0.001698,-0.920842
5699,0.001699,-0.922468
5700,0.0017,-0.925721
5701,0.001701,-0.928973
5702,0.001702,-0.928973
5703,0.001703,-0.930599
5704,0.001704,-0.930599
5705,0.001705,-0.933852
5706,0.001706,-0.935478
5707,0.001707,-0.938731
5708,0.001708,-0.940357
5709,0.001709,-0.941984
5710,0.00171,-0.941984
5711,0.001711,-0.94361
5712,0.001712,-0.94361
5713,0.001713,-0.946862
5714,0.001714,-0.946862
5715,0.001715,-0.950115
5716,0.001716,-0.951741
5717,0.001717,-0.951741
5718,0.001718,-0.953368
5719,0.001719,-0.953368
5720,0.00172,-0.954994
5721,0.001721,-0.958247
5722,0.001722,-0.958247
5723,0.001723,-0.959873
5724,0.001724,-0.958247
5725,0.001725,-0.961499
5726,0.001726,-0.959873
5727,0.001727,-0.963125
5728,0.001728,-0.964752
5729,0.001729,-0.964752
5730,0.00173,-0.966378
5731,0.001731,-0.966378
5732,0.001732,-0.964752
5733,0.001733,-0.968004
5734,0.001734,-0.968004
5735,0.001735,-0.969631
5736,0.001736,-0.969631
5737,0.001737,-0.972883
5738,0.001738,-0.971257
5739,0.001739,-0.969631
5740,0.00174,-0.968004
5741,0.001741,-0.971257
5742,0.001742,-0.971257
5743,0.001743,-0.972883
5744,0.001744,-0.972883
5745,0.001745,-0.97451
5746,0.001746,-0.97451
5747,0.001747,-0.972883
5748,0.001748,-0.97451
5749,0.001749,-0.976136
5750,0.00175,-0.977762
5751,0.001751,-0.97451
5752,0.001752,-0.97451
5753,0.001753,-0.972883
5754,0.001754,-0.972883
5755,0.001755,-0.972883
5756,0.001756,-0.97451
5757,0.001757,-0.97451
5758,0.001758,-0.97451
5759,0.001759,-0.971257
5760,0.00176,-0.971257
5761,0.001761,-0.968004
5762,0.001762,-0.971257
5763,0.001763,-0.972883
5764,0.001764,-0.971257
5765,0.001765,-0.971257
5766,0.001766,-0.969631
5767,0.001767,-0.968004
5768,0.001768,-0.964752
5769,0.001769,-0.966378
5770,0.00177,-0.966378
5771,0.001771,-0.968004
5772,0.001772,-0.966378
5773,0.001773,-0.959873
5774,0.001774,-0.959873
5775,0.001775,-0.959873
5776,0.001776,-0.959873
5777,0.001777,-0.959873
5778,0.001778,-0.963125
5779,0.001779,-0.959873
5780,0.00178,-0.95662
5781,0.001781,-0.953368
5782,0.001782,-0.953368
5783,0.001783,-0.953368
5784,0.001784,-0.953368
5785,0.001785,-0.953368
5786,0.001786,-0.950115
5787,0.001787,-0.948489
5788,0.001788,-0.945236
5789,0.001789,-0.941984
5790,0.00179,-0.94361
5791,0.001791,-0.941984
5792,0.001792,-0.941984
5793,0.001793,-0.940357
5794,0.001794,-0.938731
5795,0.001795,-0.935478
5796,0.001796,-0.932226
5797,0.001797,-0.932226
5798,0.001798,-0.930599
5799,0.001799,-0.930599
5800,0.0018,-0.928973
5801,0.001801,-0.925721
5802,0.001802,-0.922468
5803,0.001803,-0.919215
5804,0.001804,-0.919215
5805,0.001805,-0.917589
5806,0.001806,-0.917589
5807,0.001807,-0.914336
5808,0.001808,-0.911084
5809,0.001809,-0.907831
5810,0.00181,-0.904579
5811,0.001811,-0.902952
5812,0.001812,-0.8997
5813,0.001813,-0.901326
5814,0.001814,-0.898073
5815,0.001815,-0.894821
5816,0.001816,-0.891568
5817,0.001817,-0.888316
5818,0.001818,-0.885063
5819,0.001819,-0.883437
5820,0.00182,-0.885063
5821,0.001821,-0.88181
5822,0.001822,-0.876931
5823,0.001823,-0.872053
5824,0.001824,-0.8688
5825,0.001825,-0.865547
5826,0.001826,-0.867174
5827,0.001827,-0.863921
5828,0.001828,-0.860668
5829,0.001829,-0.857416
5830,0.00183,-0.850911
5831,0.001831,-0.849284
5832,0.001832,-0.846032
5833,0.001833,-0.844405
5834,0.001834,-0.842779
5835,0.001835,-0.841153
5836,0.001836,-0.836274
5837,0.001837,-0.831395
5838,0.001838,-0.828142
5839,0.001839,-0.82489
5840,0.00184,-0.821637
5841,0.001841,-0.821637
5842,0.001842,-0.818385
5843,0.001843,-0.815132
5844,0.001844,-0.811879
5845,0.001845,-0.803748
5846,0.001846,-0.802122
5847,0.001847,-0.797243
5848,0.001848,-0.797243
5849,0.001849,-0.79399
5850,0.00185,-0.789111
5851,0.001851,-0.785859
5852,0.001852,-0.78098
5853,0.001853,-0.776101
5854,0.001854,-0.772848
5855,0.001855,-0.772848
5856,0.001856,-0.767969
5857,0.001857,-0.764717
5858,0.001858,-0.761464
5859,0.001859,-0.754959
5860,0.00186,-0.75008
5861,0.001861,-0.748454
5862,0.001862,-0.743575
5863,0.001863,-0.740322
5864,0.001864,-0.737069
5865,0.001865,-0.732191
5866,0.001866,-0.725685
5867,0.001867,-0.720806
5868,0.001868,-0.717554
5869,0.001869,-0.714301
5870,0.00187,-0.711049
5871,0.001871,-0.707796
5872,0.001872,-0.704543
5873,0.001873,-0.698038
5874,0.001874,-0.693159
5875,0.001875,-0.68828
5876,0.001876,-0.685028
5877,0.001877,-0.681775
5878,0.001878,-0.678523
5879,0.001879,-0.673644
5880,0.00188,-0.667138
5881,0.001881,-0.66226
5882,0.001882,-0.657381
5883,0.001883,-0.654128
5884,0.001884,-0.652502
5885,0.001885,-0.645997
5886,0.001886,-0.642744
5887,0.001887,-0.634612
5888,0.001888,-0.63136
5889,0.001889,-0.628107
5890,0.00189,-0.621602
5891,0.001891,-0.616723
5892,0.001892,-0.61347
5893,0.001893,-0.608592
5894,0.001894,-0.602086
5895,0.001895,-0.598834
5896,0.001896,-0.593955
5897,0.001897,-0.589076
5898,0.001898,-0.584197
5899,0.001899,-0.580944
5900,0.0019,-0.574439
5901,0.001901,-0.567934
5902,0.001902,-0.563055
5903,0.001903,-0.559803
5904,0.001904,-0.554924
5905,0.001905,-0.550045
5906,0.001906,-0.54354
5907,0.001907,-0.538661
5908,0.001908,-0.532155
5909,0.001909,-0.527277
5910,0.00191,-0.520771
5911,0.001911,-0.517519
5912,0.001912,-0.514266
5913,0.001913,-0.507761
5914,0.001914,-0.504508
5915,0.001915,-0.498003
5916,0.001916,-0.491498
5917,0.001917,-0.484993
5918,0.001918,-0.483366
5919,0.001919,-0.476861
5920,0.00192,-0.471982
5921,0.001921,-0.467103
5922,0.001922,-0.460598
5923,0.001923,-0.454093
5924,0.001924,-0.449214
5925,0.001925,-0.444335
5926,0.001926,-0.43783
5927,0.001927,-0.432951
5928,0.001928,-0.426446
5929,0.001929,-0.421567
5930,0.00193,-0.416688
5931,0.001931,-0.410183
5932,0.001932,-0.405304
5933,0.001933,-0.402051
5934,0.001934,-0.395546
5935,0.001935,-0.390667
5936,0.001936,-0.384162
5937,0.001937,-0.377657
5938,0.001938,-0.371152
5939,0.001939,-0.364646
5940,0.00194,-0.36302
5941,0.001941,-0.354889
5942,0.001942,-0.351636
5943,0.001943,-0.343504
5944,0.001944,-0.336999
5945,0.001945,-0.328868
5946,0.001946,-0.325615
5947,0.001947,-0.320736
5948,0.001948,-0.317484
5949,0.001949,-0.309352
5950,0.00195,-0.302847
5951,0.001951,-0.294715
5952,0.001952,-0.291463
5953,0.001953,-0.286584
5954,0.001954,-0.281705
5955,0.001955,-0.276826
5956,0.001956,-0.270321
5957,0.001957,-0.263816
5958,0.001958,-0.255684
5959,0.001959,-0.249179
5960,0.00196,-0.2443
5961,0.001961,-0.239421
5962,0.001962,-0.236168
5963,0.001963,-0.229663
5964,0.001964,-0.219905
5965,0.001965,-0.2134
5966,0.001966,-0.208521
5967,0.001967,-0.202016
5968,0.001968,-0.198764
5969,0.001969,-0.192258
5970,0.00197,-0.185753
5971,0.001971,-0.180874
5972,0.001972,-0.16949
5973,0.001973,-0.166238
5974,0.001974,-0.161359
5975,0.001975,-0.15648
5976,0.001976,-0.151601
5977,0.001977,-0.145096
5978,0.001978,-0.136964
5979,0.001979,-0.132085
5980,0.00198,-0.122327
5981,0.001981,-0.117448
5982,0.001982,-0.114196
5983,0.001983,-0.107691
5984,0.001984,-0.101185
5985,0.001985,-0.0946802
5986,0.001986,-0.088175
5987,0.001987,-0.0816698
5988,0.001988,-0.0767909
5989,0.001989,-0.0702857
5990,0.00199,-0.0637805
5991,0.001991,-0.0605279
5992,0.001992,-0.0523964
5993,0.001993,-0.0458912
5994,0.001994,-0.0393859
5995,0.001995,-0.0328807
5996,0.001996,-0.0280018
5997,0.001997,-0.0231229
5998,0.001998,-0.0149914
5999,0.001999,-0.00848621
6000,0.002,-0.001981
6001,0.002001,0.0045242
6002,0.002002,0.00777681
6003,0.002003,0.0126557
6004,0.002004,0.0207872
6005,0.002005,0.0256661
6006,0.002006,0.0337976
6007,0.002007,0.0419291
6008,0.002008,0.0451818
6009,0.002009,0.051687
6010,0.00201,0.0581922
6011,0.002011,0.0630711
6012,0.002012,0.0712026
6013,0.002013,0.0744552
6014,0.002014,0.0825867
6015,0.002015,0.0890919
6016,0.002016,0.0939708
6017,0.002017,0.100476
6018,0.002018,0.106981
6019,0.002019,0.113486
6020,0.00202,0.119992
6021,0.002021,0.126497
6022,0.002022,0.129749
6023,0.002023,0.137881
6024,0.002024,0.141134
6025,0.002025,0.149265
6026,0.002026,0.15577
6027,0.002027,0.162275
6028,0.002028,0.168781
6029,0.002029,0.175286
6030,0.00203,0.180165
6031,0.002031,0.185044
6032,0.002032,0.188296
6033,0.002033,0.196428
6034,0.002034,0.202933
6035,0.002035,0.209438
6036,0.002036,0.215943
6037,0.002037,0.220822
6038,0.002038,0.227328
6039,0.002039,0.232206
6040,0.00204,0.238712
6041,0.002041,0.245217
6042,0.002042,0.251722
6043,0.002043,0.258227
6044,0.002044,0.263106
6045,0.002045,0.269611
6046,0.002046,0.276117
6047,0.002047,0.279369
6048,0.002048,0.285874
6049,0.002049,0.29238
6050,0.00205,0.298885
6051,0.002051,0.303764
6052,0.002052,0.310269
6053,0.002053,0.313522
6054,0.002054,0.320027
6055,0.002055,0.326532
6056,0.002056,0.333037
6057,0.002057,0.339542
6058,0.002058,0.344421
6059,0.002059,0.3493
6060,0.00206,0.355805
6061,0.002061,0.359058
6062,0.002062,0.36719
6063,0.002063,0.373695
6064,0.002064,0.378574
6065,0.002065,0.385079
6066,0.002066,0.389958
6067,0.002067,0.39321
6068,0.002068,0.399716
6069,0.002069,0.404594
6070,0.00207,0.414352
6071,0.002071,0.417605
6072,0.002072,0.42411
6073,0.002073,0.428989
6074,0.002074,0.433868
6075,0.002075,0.43712
6076,0.002076,0.445252
6077,0.002077,0.448505
6078,0.002078,0.456636
6079,0.002079,0.459889
6080,0.00208,0.466394
6081,0.002081,0.469647
6082,0.002082,0.476152
6083,0.002083,0.479404
6084,0.002084,0.487536
6085,0.002085,0.492415
6086,0.002086,0.49892
6087,0.002087,0.502173
6088,0.002088,0.507051
6089,0.002089,0.51193
6090,0.00209,0.515183
6091,0.002091,0.523315
6092,0.002092,0.52982
6093,0.002093,0.534699
6094,0.002094,0.537951
6095,0.002095,0.544456
6096,0.002096,0.547709
6097,0.002097,0.554214
6098,0.002098,0.557467
6099,0.002099,0.563972
6100,0.0021,0.570477
6101,0.002101,0.57373
6102,0.002102,0.576982
6103,0.002103,0.583488
6104,0.002104,0.58674
6105,0.002105,0.593246
6106,0.002106,0.599751
6107,0.002107,0.603003
6108,0.002108,0.607882
6109,0.002109,0.611135
6110,0.00211,0.61764
6111,0.002111,0.622519
6112,0.002112,0.629024
6113,0.002113,0.63065
6114,0.002114,0.637156
6115,0.002115,0.640408
6116,0.002116,0.643661
6117,0.002117,0.650166
6118,0.002118,0.655045
6119,0.002119,0.659924
6120,0.00212,0.664803
6121,0.002121,0.668055
6122,0.002122,0.672934
6123,0.002123,0.676187
6124,0.002124,0.677813
6125,0.002125,0.684318
6126,0.002126,0.690824
6127,0.002127,0.694076
6128,0.002128,0.698955
6129,0.002129,0.702208
6130,0.00213,0.70546
6131,0.002131,0.710339
6132,0.002132,0.715218
6133,0.002133,0.718471
6134,0.002134,0.724976
6135,0.002135,0.726602
6136,0.002136,0.731481
6137,0.002137,0.734734
6138,0.002138,0.737986
6139,0.002139,0.742865
6140,0.00214,0.747744
6141,0.002141,0.750997
6142,0.002142,0.754249
6143,0.002143,0.760755
6144,0.002144,0.760755
6145,0.002145,0.765634
6146,0.002146,0.768886
6147,0.002147,0.773765
6148,0.002148,0.778644
6149,0.002149,0.781897
6150,0.00215,0.783523
6151,0.002151,0.786775
6152,0.002152,0.790028
6153,0.002153,0.793281
6154,0.002154,0.79816
6155,0.002155,0.804665
6156,0.002156,0.806291
6157,0.002157,0.81117
6158,0.002158,0.81117
6159,0.002159,0.814423
6160,0.00216,0.817675
6161,0.002161,0.822554
6162,0.002162,0.825807
6163,0.002163,0.830686
6164,0.002164,0.830686
6165,0.002165,0.833938
6166,0.002166,0.835564
6167,0.002167,0.84207
6168,0.002168,0.845322
6169,0.002169,0.850201
6170,0.00217,0.850201
6171,0.002171,0.851828
6172,0.002172,0.85508
6173,0.002173,0.858333
6174,0.002174,0.861585
6175,0.002175,0.866464
6176,0.002176,0.868091
6177,0.002177,0.871343
6178,0.002178,0.871343
6179,0.002179,0.872969
6180,0.00218,0.876222
6181,0.002181,0.882727
6182,0.002182,0.884354
6183,0.002183,0.889232
6184,0.002184,0.889232
6185,0.002185,0.890859
6186,0.002186,0.890859
6187,0.002187,0.894111
6188,0.002188,0.89899
6189,0.002189,0.900617
6190,0.00219,0.903869
6191,0.002191,0.905495
6192,0.002192,0.907122
6193,0.002193,0.907122
6194,0.002194,0.910374
6195,0.002195,0.913627
6196,0.002196,0.915253
6197,0.002197,0.918506
6198,0.002198,0.921758
6199,0.002199,0.921758
6200,0.0022,0.921758
6201,0.002201,0.923385
6202,0.002202,0.928264
6203,0.002203,0.928264
6204,0.002204,0.933143
6205,0.002205,0.933143
6206,0.002206,0.936395
6207,0.002207,0.936395
6208,0.002208,0.933143
6209,0.002209,0.939648
6210,0.00221,0.939648
6211,0.002211,0.944527
6212,0.002212,0.944527
6213,0.002213,0.944527
6214,0.002214,0.9429
6215,0.002215,0.946153
6216,0.002216,0.946153
6217,0.002217,0.951032
6218,0.002218,0.952658
6219,0.002219,0.952658
6220,0.00222,0.955911
6221,0.002221,0.954284
6222,0.002222,0.955911
6223,0.002223,0.957537
6224,0.002224,0.957537
6225,0.002225,0.96079
6226,0.002226,0.96079
6227,0.002227,0.962416
6228,0.002228,0.959163
6229,0.002229,0.96079
6230,0.00223,0.964042
6231,0.002231,0.962416
6232,0.002232,0.967295
6233,0.002233,0.967295
6234,0.002234,0.968921
6235,0.002235,0.965669
6236,0.002236,0.964042
6237,0.002237,0.965669
6238,0.002238,0.970548
6239,0.002239,0.970548
6240,0.00224,0.970548
6241,0.002241,0.970548
6242,0.002242,0.968921
6243,0.002243,0.967295
6244,0.002244,0.968921
6245,0.002245,0.970548
6246,0.002246,0.972174
6247,0.002247,0.9738
6248,0.002248,0.9738
6249,0.002249,0.972174
6250,0.00225,0.968921
6251,0.002251,0.972174
6252,0.002252,0.970548
6253,0.002253,0.972174
6254,0.002254,0.9738
6255,0.002255,0.9738
6256,0.002256,0.967295
6257,0.002257,0.968921
6258,0.002258,0.968921
6259,0.002259,0.968921
6260,0.00226,0.970548
6261,0.002261,0.972174
6262,0.002262,0.972174
6263,0.002263,0.970548
6264,0.002264,0.964042
6265,0.002265,0.965669
6266,0.002266,0.967295
6267,0.002267,0.968921
6268,0.002268,0.970548
6269,0.002269,0.964042
6270,0.00227,0.964042
6271,0.002271,0.964042
6272,0.002272,0.962416
6273,0.002273,0.96079
6274,0.002274,0.962416
6275,0.002275,0.962416
6276,0.002276,0.959163
6277,0.002277,0.959163
6278,0.002278,0.957537
6279,0.002279,0.954284
6280,0.00228,0.954284
6281,0.002281,0.954284
6282,0.002282,0.954284
6283,0.002283,0.954284
6284,0.002284,0.949406
6285,0.002285,0.946153
6286,0.002286,0.944527
6287,0.002287,0.947779
6288,0.002288,0.944527
6289,0.002289,0.944527
6290,0.00229,0.941274
6291,0.002291,0.941274
6292,0.002292,0.936395
6293,0.002293,0.936395
6294,0.002294,0.934769
6295,0.002295,0.934769
6296,0.002296,0.936395
6297,0.002297,0.92989
6298,0.002298,0.92989
6299,0.002299,0.925011
6300,0.0023,0.925011
6301,0.002301,0.925011
6302,0.002302,0.921758
6303,0.002303,0.921758
6304,0.002304,0.918506
6305,0.002305,0.913627
6306,0.002306,0.913627
6307,0.002307,0.912001
6308,0.002308,0.908748
6309,0.002309,0.907122
6310,0.00231,0.907122
6311,0.002311,0.903869
6312,0.002312,0.897364
6313,0.002313,0.895738
6314,0.002314,0.894111
6315,0.002315,0.890859
6316,0.002316,0.890859
6317,0.002317,0.890859
6318,0.002318,0.887606
6319,0.002319,0.881101
6320,0.00232,0.879475
6321,0.002321,0.876222
6322,0.002322,0.874596
6323,0.002323,0.874596
6324,0.002324,0.869717
6325,0.002325,0.866464
6326,0.002326,0.863212
6327,0.002327,0.858333
6328,0.002328,0.858333
6329,0.002329,0.85508
6330,0.00233,0.853454
6331,0.002331,0.850201
6332,0.002332,0.848575
6333,0.002333,0.84207
6334,0.002334,0.84207
6335,0.002335,0.837191
6336,0.002336,0.833938
6337,0.002337,0.833938
6338,0.002338,0.829059
6339,0.002339,0.825807
6340,0.00234,0.820928
6341,0.002341,0.819301
6342,0.002342,0.812796
6343,0.002343,0.81117
6344,0.002344,0.807917
6345,0.002345,0.807917
6346,0.002346,0.804665
6347,0.002347,0.79816
6348,0.002348,0.793281
6349,0.002349,0.790028
6350,0.00235,0.786775
6351,0.002351,0.785149
6352,0.002352,0.781897
6353,0.002353,0.777018
6354,0.002354,0.773765
6355,0.002355,0.768886
6356,0.002356,0.764007
6357,0.002357,0.762381
6358,0.002358,0.759128
6359,0.002359,0.755876
6360,0.00236,0.750997
6361,0.002361,0.747744
6362,0.002362,0.742865
6363,0.002363,0.737986
6364,0.002364,0.733107
6365,0.002365,0.729855
6366,0.002366,0.726602
6367,0.002367,0.724976
6368,0.002368,0.718471
6369,0.002369,0.713592
6370,0.00237,0.708713
6371,0.002371,0.70546
6372,0.002372,0.702208
6373,0.002373,0.698955
6374,0.002374,0.695702
6375,0.002375,0.687571
6376,0.002376,0.682692
6377,0.002377,0.679439
6378,0.002378,0.676187
6379,0.002379,0.672934
6380,0.00238,0.669682
6381,0.002381,0.663176
6382,0.002382,0.658298
6383,0.002383,0.651792
6384,0.002384,0.646913
6385,0.002385,0.643661
6386,0.002386,0.638782
6387,0.002387,0.637156
6388,0.002388,0.633903
6389,0.002389,0.625772
6390,0.00239,0.619266
6391,0.002391,0.612761
6392,0.002392,0.609509
6393,0.002393,0.609509
6394,0.002394,0.606256
6395,0.002395,0.596498
6396,0.002396,0.593246
6397,0.002397,0.58674
6398,0.002398,0.581861
6399,0.002399,0.578609
6400,0.0024,0.575356
6401,0.002401,0.568851
6402,0.002402,0.563972
6403,0.002403,0.557467
6404,0.002404,0.550962
6405,0.002405,0.547709
6406,0.002406,0.541204
6407,0.002407,0.537951
6408,0.002408,0.536325
6409,0.002409,0.52982
6410,0.00241,0.523315
6411,0.002411,0.516809
6412,0.002412,0.510304
6413,0.002413,0.508678
6414,0.002414,0.502173
6415,0.002415,0.49892
6416,0.002416,0.494041
6417,0.002417,0.48591
6418,0.002418,0.479404
6419,0.002419,0.472899
6420,0.00242,0.46802
6421,0.002421,0.464768
6422,0.002422,0.461515
6423,0.002423,0.456636
6424,0.002424,0.450131
6425,0.002425,0.443626
6426,0.002426,0.435494
6427,0.002427,0.433868
6428,0.002428,0.427363
6429,0.002429,0.42411
6430,0.00243,0.417605
6431,0.002431,0.409473
6432,0.002432,0.404594
6433,0.002433,0.398089
6434,0.002434,0.39321
6435,0.002435,0.389958
6436,0.002436,0.383453
6437,0.002437,0.378574
6438,0.002438,0.368816
6439,0.002439,0.365563
6440,0.00244,0.357432
6441,0.002441,0.354179
6442,0.002442,0.347674
6443,0.002443,0.344421
6444,0.002444,0.339542
6445,0.002445,0.331411
6446,0.002446,0.324906
6447,0.002447,0.3184
6448,0.002448,0.313522
6449,0.002449,0.308643
6450,0.00245,0.303764
6451,0.002451,0.297259
6452,0.002452,0.29238
6453,0.002453,0.280996
6454,0.002454,0.277743
6455,0.002455,0.272864
6456,0.002456,0.269611
6457,0.002457,0.263106
6458,0.002458,0.256601
6459,0.002459,0.250096
6460,0.00246,0.243591
6461,0.002461,0.237085
6462,0.002462,0.23058
6463,0.002463,0.225701
6464,0.002464,0.220822
6465,0.002465,0.215943
6466,0.002466,0.207812
6467,0.002467,0.201307
6468,0.002468,0.194802
6469,0.002469,0.188296
6470,0.00247,0.183417
6471,0.002471,0.180165
6472,0.002472,0.175286
6473,0.002473,0.167154
6474,0.002474,0.160649
6475,0.002475,0.152518
6476,0.002476,0.146012
6477,0.002477,0.141134
6478,0.002478,0.137881
6479,0.002479,0.133002
6480,0.00248,0.123244
6481,0.002481,0.118365
6482,0.002482,0.108608
6483,0.002483,0.102102
6484,0.002484,0.0988497
6485,0.002485,0.0939708
6486,0.002486,0.0874656
6487,0.002487,0.0825867
6488,0.002488,0.0760815
6489,0.002489,0.06795
6490,0.00249,0.0614448
6491,0.002491,0.0565659
6492,0.002492,0.0533133
6493,0.002493,0.0451818
6494,0.002494,0.0386765
6495,0.002495,0.0321713
6496,0.002496,0.0256661
6497,0.002497,0.0207872
6498,0.002498,0.0159083
6499,0.002499,0.00777681
6500,0.0025,0.0045242
6501,0.002501,-0.00360731
6502,0.002502,-0.0101125
6503,0.002503,-0.0166177
6504,0.002504,-0.0214966
6505,0.002505,-0.0280018
6506,0.002506,-0.034507
6507,0.002507,-0.0377596
6508,0.002508,-0.0458912
6509,0.002509,-0.0491438
6510,0.00251,-0.0589016
6511,0.002511,-0.0654068
6512,0.002512,-0.0702857
6513,0.002513,-0.0767909
6514,0.002514,-0.0816698
6515,0.002515,-0.0898013
6516,0.002516,-0.0963065
6517,0.002517,-0.101185
6518,0.002518,-0.107691
6519,0.002519,-0.11257
6520,0.00252,-0.119075
6521,0.002521,-0.12558
6522,0.002522,-0.132085
6523,0.002523,-0.13859
6524,0.002524,-0.143469
6525,0.002525,-0.149974
6526,0.002526,-0.158106
6527,0.002527,-0.161359
6528,0.002528,-0.16949
6529,0.002529,-0.171116
6530,0.00253,-0.180874
6531,0.002531,-0.187379
6532,0.002532,-0.190632
6533,0.002533,-0.197137
6534,0.002534,-0.203642
6535,0.002535,-0.210148
6536,0.002536,-0.215027
6537,0.002537,-0.221532
6538,0.002538,-0.229663
6539,0.002539,-0.232916
6540,0.00254,-0.239421
6541,0.002541,-0.245926
6542,0.002542,-0.252432
6543,0.002543,-0.258937
6544,0.002544,-0.263816
6545,0.002545,-0.268695
6546,0.002546,-0.276826
6547,0.002547,-0.280079
6548,0.002548,-0.286584
6549,0.002549,-0.293089
6550,0.00255,-0.297968
6551,0.002551,-0.302847
6552,0.002552,-0.309352
6553,0.002553,-0.315857
6554,0.002554,-0.322362
6555,0.002555,-0.328868
6556,0.002556,-0.333747
6557,0.002557,-0.338625
6558,0.002558,-0.345131
6559,0.002559,-0.35001
6560,0.00256,-0.353262
6561,0.002561,-0.364646
6562,0.002562,-0.366273
6563,0.002563,-0.37603
6564,0.002564,-0.379283
6565,0.002565,-0.384162
6566,0.002566,-0.389041
6567,0.002567,-0.395546
6568,0.002568,-0.402051
6569,0.002569,-0.408556
6570,0.00257,-0.411809
6571,0.002571,-0.418314
6572,0.002572,-0.424819
6573,0.002573,-0.428072
6574,0.002574,-0.434577
6575,0.002575,-0.439456
6576,0.002576,-0.445961
6577,0.002577,-0.452467
6578,0.002578,-0.455719
6579,0.002579,-0.462224
6580,0.00258,-0.467103
6581,0.002581,-0.471982
6582,0.002582,-0.478487
6583,0.002583,-0.484993
6584,0.002584,-0.488245
6585,0.002585,-0.493124
6586,0.002586,-0.498003
6587,0.002587,-0.504508
6588,0.002588,-0.507761
6589,0.002589,-0.515892
6590,0.00259,-0.519145
6591,0.002591,-0.52565
6592,0.002592,-0.530529
6593,0.002593,-0.537034
6594,0.002594,-0.538661
6595,0.002595,-0.546792
6596,0.002596,-0.550045
6597,0.002597,-0.553297
6598,0.002598,-0.561429
6599,0.002599,-0.564681
6600,0.0026,-0.56956
6601,0.002601,-0.576066
6602,0.002602,-0.579318
6603,0.002603,-0.584197
6604,0.002604,-0.589076
6605,0.002605,-0.592329
6606,0.002606,-0.60046
6607,0.002607,-0.605339
6608,0.002608,-0.610218
6609,0.002609,-0.61347
6610,0.00261,-0.618349
6611,0.002611,-0.624855
6612,0.002612,-0.628107
6613,0.002613,-0.63136
6614,0.002614,-0.637865
6615,0.002615,-0.64437
6616,0.002616,-0.647623
6617,0.002617,-0.650875
6618,0.002618,-0.654128
6619,0.002619,-0.659007
6620,0.00262,-0.663886
6621,0.002621,-0.670391
6622,0.002622,-0.673644
6623,0.002623,-0.676896
6624,0.002624,-0.680149
6625,0.002625,-0.685028
6626,0.002626,-0.689907
6627,0.002627,-0.694786
6628,0.002628,-0.699665
6629,0.002629,-0.70617
6630,0.00263,-0.70617
6631,0.002631,-0.711049
6632,0.002632,-0.714301
6633,0.002633,-0.717554
6634,0.002634,-0.724059
6635,0.002635,-0.730564
6636,0.002636,-0.732191
6637,0.002637,-0.735443
6638,0.002638,-0.738696
6639,0.002639,-0.741948
6640,0.00264,-0.748454
6641,0.002641,-0.753332
6642,0.002642,-0.756585
6643,0.002643,-0.759838
6644,0.002644,-0.76309
6645,0.002645,-0.767969
6646,0.002646,-0.771222
6647,0.002647,-0.774474
6648,0.002648,-0.78098
6649,0.002649,-0.784232
6650,0.00265,-0.787485
6651,0.002651,-0.790737
6652,0.002652,-0.79399
6653,0.002653,-0.797243
6654,0.002654,-0.798869
6655,0.002655,-0.805374
6656,0.002656,-0.808627
6657,0.002657,-0.811879
6658,0.002658,-0.815132
6659,0.002659,-0.815132
6660,0.00266,-0.820011
6661,0.002661,-0.821637
6662,0.002662,-0.828142
6663,0.002663,-0.831395
6664,0.002664,-0.834648
6665,0.002665,-0.834648
6666,0.002666,-0.839526
6667,0.002667,-0.842779
6668,0.002668,-0.846032
6669,0.002669,-0.850911
6670,0.00267,-0.850911
6671,0.002671,-0.855789
6672,0.002672,-0.855789
6673,0.002673,-0.860668
6674,0.002674,-0.863921
6675,0.002675,-0.867174
6676,0.002676,-0.870426
6677,0.002677,-0.872053
6678,0.002678,-0.873679
6679,0.002679,-0.875305
6680,0.00268,-0.878558
6681,0.002681,-0.883437
6682,0.002682,-0.886689
6683,0.002683,-0.889942
6684,0.002684,-0.891568
6685,0.002685,-0.893194
6686,0.002686,-0.893194
6687,0.002687,-0.896447
6688,0.002688,-0.8997
6689,0.002689,-0.902952
6690,0.00269,-0.906205
6691,0.002691,-0.906205
6692,0.002692,-0.909457
6693,0.002693,-0.911084
6694,0.002694,-0.91271
6695,0.002695,-0.915963
6696,0.002696,-0.919215
6697,0.002697,-0.919215
6698,0.002698,-0.924094
6699,0.002699,-0.924094
6700,0.0027,-0.924094
6701,0.002701,-0.925721
6702,0.002702,-0.928973
6703,0.002703,-0.930599
6704,0.002704,-0.933852
6705,0.002705,-0.935478
6706,0.002706,-0.935478
6707,0.002707,-0.938731
6708,0.002708,-0.937105
6709,0.002709,-0.940357
6710,0.00271,-0.941984
6711,0.002711,-0.945236
6712,0.002712,-0.94361
6713,0.002713,-0.946862
6714,0.002714,-0.945236
6715,0.002715,-0.950115
6716,0.002716,-0.950115
6717,0.002717,-0.951741
6718,0.002718,-0.953368
6719,0.002719,-0.953368
6720,0.00272,-0.95662
6721,0.002721,-0.954994
6722,0.002722,-0.958247
6723,0.002723,-0.958247
6724,0.002724,-0.961499
6725,0.002725,-0.961499
6726,0.002726,-0.961499
6727,0.002727,-0.963125
6728,0.002728,-0.963125
6729,0.002729,-0.966378
6730,0.00273,-0.966378
6731,0.002731,-0.964752
6732,0.002732,-0.968004
6733,0.002733,-0.968004
6734,0.002734,-0.968004
6735,0.002735,-0.968004
6736,0.002736,-0.968004
6737,0.002737,-0.971257
6738,0.002738,-0.972883
6739,0.002739,-0.972883
6740,0.00274,-0.971257
6741,0.002741,-0.972883
6742,0.002742,-0.969631
6743,0.002743,-0.969631
6744,0.002744,-0.972883
6745,0.002745,-0.972883
6746,0.002746,-0.976136
6747,0.002747,-0.976136
6748,0.002748,-0.972883
6749,0.002749,-0.97451
6750,0.00275,-0.972883
6751,0.002751,-0.976136
6752,0.002752,-0.976136
6753,0.002753,-0.976136
6754,0.002754,-0.972883
6755,0.002755,-0.97451
6756,0.002756,-0.972883
6757,0.002757,-0.971257
6758,0.002758,-0.972883
6759,0.002759,-0.972883
6760,0.00276,-0.972883
6761,0.002761,-0.969631
6762,0.002762,-0.969631
6763,0.002763,-0.972883
6764,0.002764,-0.969631
6765,0.002765,-0.969631
6766,0.002766,-0.969631
6767,0.002767,-0.969631
6768,0.002768,-0.968004
6769,0.002769,-0.966378
6770,0.00277,-0.966378
6771,0.002771,-0.964752
6772,0.002772,-0.964752
6773,0.002773,-0.963125
6774,0.002774,-0.963125
6775,0.002775,-0.961499
6776,0.002776,-0.961499
6777,0.002777,-0.961499
6778,0.002778,-0.959873
6779,0.002779,-0.95662
6780,0.00278,-0.958247
6781,0.002781,-0.954994
6782,0.002782,-0.954994
6783,0.002783,-0.954994
6784,0.002784,-0.953368
6785,0.002785,-0.950115
6786,0.002786,-0.948489
6787,0.002787,-0.948489
6788,0.002788,-0.946862
6789,0.002789,-0.946862
6790,0.00279,-0.94361
6791,0.002791,-0.94361
6792,0.002792,-0.940357
6793,0.002793,-0.938731
6794,0.002794,-0.937105
6795,0.002795,-0.937105
6796,0.002796,-0.937105
6797,0.002797,-0.935478
6798,0.002798,-0.933852
6799,0.002799,-0.927347
6800,0.0028,-0.927347
6801,0.002801,-0.925721
6802,0.002802,-0.922468
6803,0.002803,-0.922468
6804,0.002804,-0.920842
6805,0.002805,-0.917589
6806,0.002806,-0.915963
6807,0.002807,-0.91271
6808,0.002808,-0.909457
6809,0.002809,-0.909457
6810,0.00281,-0.907831
6811,0.002811,-0.904579
6812,0.002812,-0.902952
6813,0.002813,-0.8997
6814,0.002814,-0.898073
6815,0.002815,-0.894821
6816,0.002816,-0.893194
6817,0.002817,-0.891568
6818,0.002818,-0.888316
6819,0.002819,-0.885063
6820,0.00282,-0.88181
6821,0.002821,-0.878558
6822,0.002822,-0.875305
6823,0.002823,-0.875305
6824,0.002824,-0.872053
6825,0.002825,-0.867174
6826,0.002826,-0.867174
6827,0.002827,-0.863921
6828,0.002828,-0.860668
6829,0.002829,-0.857416
6830,0.00283,-0.855789
6831,0.002831,-0.852537
6832,0.002832,-0.849284
6833,0.002833,-0.846032
6834,0.002834,-0.842779
6835,0.002835,-0.839526
6836,0.002836,-0.836274
6837,0.002837,-0.834648
6838,0.002838,-0.831395
6839,0.002839,-0.828142
6840,0.00284,-0.82489
6841,0.002841,-0.818385
6842,0.002842,-0.816758
6843,0.002843,-0.813506
6844,0.002844,-0.811879
6845,0.002845,-0.808627
6846,0.002846,-0.805374
6847,0.002847,-0.800495
6848,0.002848,-0.797243
6849,0.002849,-0.79399
6850,0.00285,-0.790737
6851,0.002851,-0.787485
6852,0.002852,-0.784232
6853,0.002853,-0.779353
6854,0.002854,-0.776101
6855,0.002855,-0.772848
6856,0.002856,-0.766343
6857,0.002857,-0.76309
6858,0.002858,-0.761464
6859,0.002859,-0.758211
6860,0.00286,-0.751706
6861,0.002861,-0.746827
6862,0.002862,-0.743575
6863,0.002863,-0.740322
6864,0.002864,-0.737069
6865,0.002865,-0.732191
6866,0.002866,-0.728938
6867,0.002867,-0.727312
6868,0.002868,-0.720806
6869,0.002869,-0.714301
6870,0.00287,-0.711049
6871,0.002871,-0.70617
6872,0.002872,-0.702917
6873,0.002873,-0.701291
6874,0.002874,-0.694786
6875,0.002875,-0.693159
6876,0.002876,-0.686654
6877,0.002877,-0.680149
6878,0.002878,-0.676896
6879,0.002879,-0.673644
6880,0.00288,-0.668765
6881,0.002881,-0.665512
6882,0.002882,-0.660633
6883,0.002883,-0.654128
6884,0.002884,-0.649249
6885,0.002885,-0.645997
6886,0.002886,-0.641118
6887,0.002887,-0.637865
6888,0.002888,-0.634612
6889,0.002889,-0.629734
6890,0.00289,-0.623228
6891,0.002891,-0.616723
6892,0.002892,-0.61347
6893,0.002893,-0.608592
6894,0.002894,-0.605339
6895,0.002895,-0.60046
6896,0.002896,-0.593955
6897,0.002897,-0.589076
6898,0.002898,-0.582571
6899,0.002899,-0.579318
6900,0.0029,-0.576066
6901,0.002901,-0.571187
6902,0.002902,-0.566308
6903,0.002903,-0.559803
6904,0.002904,-0.553297
6905,0.002905,-0.550045
6906,0.002906,-0.54354
6907,0.002907,-0.540287
6908,0.002908,-0.537034
6909,0.002909,-0.530529
6910,0.00291,-0.527277
6911,0.002911,-0.519145
6912,0.002912,-0.51264
6913,0.002913,-0.507761
6914,0.002914,-0.504508
6915,0.002915,-0.498003
6916,0.002916,-0.496377
6917,0.002917,-0.486619
6918,0.002918,-0.48174
6919,0.002919,-0.476861
6920,0.00292,-0.470356
6921,0.002921,-0.467103
6922,0.002922,-0.462224
6923,0.002923,-0.458972
6924,0.002924,-0.45084
6925,0.002925,-0.444335
6926,0.002926,-0.43783
6927,0.002927,-0.432951
6928,0.002928,-0.428072
6929,0.002929,-0.423193
6930,0.00293,-0.419941
6931,0.002931,-0.413435
6932,0.002932,-0.40693
6933,0.002933,-0.400425
6934,0.002934,-0.39392
6935,0.002935,-0.390667
6936,0.002936,-0.385788
6937,0.002937,-0.379283
6938,0.002938,-0.374404
6939,0.002939,-0.366273
6940,0.00294,-0.359767
6941,0.002941,-0.353262
6942,0.002942,-0.35001
6943,0.002943,-0.343504
6944,0.002944,-0.338625
6945,0.002945,-0.333747
6946,0.002946,-0.325615
6947,0.002947,-0.322362
6948,0.002948,-0.312605
6949,0.002949,-0.309352
6950,0.00295,-0.304473
6951,0.002951,-0.299594
6952,0.002952,-0.293089
6953,0.002953,-0.28821
6954,0.002954,-0.281705
6955,0.002955,-0.2752
6956,0.002956,-0.268695
6957,0.002957,-0.262189
6958,0.002958,-0.258937
6959,0.002959,-0.252432
6960,0.00296,-0.2443
6961,0.002961,-0.239421
6962,0.002962,-0.232916
6963,0.002963,-0.226411
6964,0.002964,-0.221532
6965,0.002965,-0.216653
6966,0.002966,-0.211774
6967,0.002967,-0.203642
6968,0.002968,-0.197137
6969,0.002969,-0.190632
6970,0.00297,-0.185753
6971,0.002971,-0.180874
6972,0.002972,-0.174369
6973,0.002973,-0.16949
6974,0.002974,-0.161359
6975,0.002975,-0.15648
6976,0.002976,-0.149974
6977,0.002977,-0.143469
6978,0.002978,-0.140217
6979,0.002979,-0.133711
6980,0.00298,-0.12558
6981,0.002981,-0.119075
6982,0.002982,-0.11257
6983,0.002983,-0.106064
6984,0.002984,-0.101185
6985,0.002985,-0.0946802
6986,0.002986,-0.0898013
6987,0.002987,-0.0832961
6988,0.002988,-0.0767909
6989,0.002989,-0.0702857
6990,0.00299,-0.0637805
6991,0.002991,-0.0589016
6992,0.002992,-0.0523964
6993,0.002993,-0.0475175
6994,0.002994,-0.0410122
6995,0.002995,-0.034507
6996,0.002996,-0.0280018
6997,0.002997,-0.0214966
6998,0.002998,-0.0166177
6999,0.002999,-0.0117388
7000,0.003,-0.00523361
7001,0.003001,0.0012716
7002,0.003002,0.00777681
7003,0.003003,0.014282
7004,0.003004,0.0207872
7005,0.003005,0.0272924
7006,0.003006,0.0337976
7007,0.003007,0.0370502
7008,0.003008,0.0451818
7009,0.003009,0.051687
7010,0.00301,0.0581922
7011,0.003011,0.0646974
7012,0.003012,0.0695763
7013,0.003013,0.0728289
7014,0.003014,0.0809604
7015,0.003015,0.0858393
7016,0.003016,0.0955971
7017,0.003017,0.102102
7018,0.003018,0.105355
7019,0.003019,0.11186
7020,0.00302,0.115113
7021,0.003021,0.123244
7022,0.003022,0.129749
7023,0.003023,0.136255
7024,0.003024,0.144386
7025,0.003025,0.150891
7026,0.003026,0.152518
7027,0.003027,0.160649
7028,0.003028,0.165528
7029,0.003029,0.172033
7030,0.00303,0.180165
7031,0.003031,0.18667
7032,0.003032,0.191549
7033,0.003033,0.196428
7034,0.003034,0.201307
7035,0.003035,0.207812
7036,0.003036,0.214317
7037,0.003037,0.220822
7038,0.003038,0.228954
7039,0.003039,0.233833
7040,0.00304,0.238712
7041,0.003041,0.245217
7042,0.003042,0.250096
7043,0.003043,0.256601
7044,0.003044,0.263106
7045,0.003045,0.272864
7046,0.003046,0.276117
7047,0.003047,0.280996
7048,0.003048,0.284248
7049,0.003049,0.290753
7050,0.00305,0.297259
7051,0.003051,0.303764
7052,0.003052,0.310269
7053,0.003053,0.316774
7054,0.003054,0.321653
7055,0.003055,0.326532
7056,0.003056,0.333037
7057,0.003057,0.337916
7058,0.003058,0.342795
7059,0.003059,0.3493
7060,0.00306,0.357432
7061,0.003061,0.360684
7062,0.003062,0.365563
7063,0.003063,0.370442
7064,0.003064,0.376947
7065,0.003065,0.383453
7066,0.003066,0.389958
7067,0.003067,0.396463
7068,0.003068,0.401342
7069,0.003069,0.404594
7070,0.00307,0.4111
7071,0.003071,0.414352
7072,0.003072,0.422484
7073,0.003073,0.428989
7074,0.003074,0.435494
7075,0.003075,0.438747
7076,0.003076,0.443626
7077,0.003077,0.448505
7078,0.003078,0.45501
7079,0.003079,0.461515
7080,0.00308,0.466394
7081,0.003081,0.471273
7082,0.003082,0.476152
7083,0.003083,0.481031
7084,0.003084,0.48591
7085,0.003085,0.492415
7086,0.003086,0.495667
7087,0.003087,0.503799
7088,0.003088,0.508678
7089,0.003089,0.51193
7090,0.00309,0.518436
7091,0.003091,0.521688
7092,0.003092,0.528193
7093,0.003093,0.534699
7094,0.003094,0.539578
7095,0.003095,0.546083
7096,0.003096,0.549335
7097,0.003097,0.552588
7098,0.003098,0.559093
7099,0.003099,0.563972
7100,0.0031,0.568851
7101,0.003101,0.57373
7102,0.003102,0.580235
7103,0.003103,0.583488
7104,0.003104,0.58674
7105,0.003105,0.593246
7106,0.003106,0.598124
7107,0.003107,0.603003
7108,0.003108,0.609509
7109,0.003109,0.614387
7110,0.00311,0.616014
7111,0.003111,0.622519
7112,0.003112,0.625772
7113,0.003113,0.63065
7114,0.003114,0.633903
7115,0.003115,0.642035
7116,0.003116,0.646913
7117,0.003117,0.650166
7118,0.003118,0.655045
7119,0.003119,0.658298
7120,0.00312,0.66155
7121,0.003121,0.668055
7122,0.003122,0.672934
7123,0.003123,0.679439
7124,0.003124,0.682692
7125,0.003125,0.684318
7126,0.003126,0.689197
7127,0.003127,0.69245
7128,0.003128,0.698955
7129,0.003129,0.702208
7130,0.00313,0.70546
7131,0.003131,0.711966
7132,0.003132,0.715218
7133,0.003133,0.718471
7134,0.003134,0.721723
7135,0.003135,0.726602
7136,0.003136,0.731481
7137,0.003137,0.73636
7138,0.003138,0.741239
7139,0.003139,0.742865
7140,0.00314,0.746118
7141,0.003141,0.74937
7142,0.003142,0.752623
7143,0.003143,0.759128
7144,0.003144,0.764007
7145,0.003145,0.76726
7146,0.003146,0.770512
7147,0.003147,0.770512
7148,0.003148,0.777018
7149,0.003149,0.78027
7150,0.00315,0.785149
7151,0.003151,0.788402
7152,0.003152,0.794907
7153,0.003153,0.794907
7154,0.003154,0.79816
7155,0.003155,0.801412
7156,0.003156,0.804665
7157,0.003157,0.81117
7158,0.003158,0.812796
7159,0.003159,0.817675
7160,0.00316,0.819301
7161,0.003161,0.820928
7162,0.003162,0.82418
7163,0.003163,0.830686
7164,0.003164,0.832312
7165,0.003165,0.835564
7166,0.003166,0.840443
7167,0.003167,0.840443
7168,0.003168,0.843696
7169,0.003169,0.845322
7170,0.00317,0.848575
7171,0.003171,0.851828
7172,0.003172,0.85508
7173,0.003173,0.858333
7174,0.003174,0.861585
7175,0.003175,0.864838
7176,0.003176,0.866464
7177,0.003177,0.869717
7178,0.003178,0.872969
7179,0.003179,0.876222
7180,0.00318,0.877848
7181,0.003181,0.881101
7182,0.003182,0.884354
7183,0.003183,0.887606
7184,0.003184,0.889232
7185,0.003185,0.890859
7186,0.003186,0.894111
7187,0.003187,0.895738
7188,0.003188,0.89899
7189,0.003189,0.89899
7190,0.00319,0.902243
7191,0.003191,0.905495
7192,0.003192,0.908748
7193,0.003193,0.912001
7194,0.003194,0.912001
7195,0.003195,0.913627
7196,0.003196,0.915253
7197,0.003197,0.918506
7198,0.003198,0.920132
7199,0.003199,0.920132
7200,0.0032,0.925011
7201,0.003201,0.926637
7202,0.003202,0.926637
7203,0.003203,0.92989
7204,0.003204,0.933143
7205,0.003205,0.931516
7206,0.003206,0.934769
7207,0.003207,0.936395
7208,0.003208,0.936395
7209,0.003209,0.939648
7210,0.00321,0.941274
7211,0.003211,0.9429
7212,0.003212,0.9429
7213,0.003213,0.9429
7214,0.003214,0.946153
7215,0.003215,0.949406
7216,0.003216,0.949406
7217,0.003217,0.949406
7218,0.003218,0.952658
7219,0.003219,0.951032
7220,0.00322,0.954284
7221,0.003221,0.954284
7222,0.003222,0.957537
7223,0.003223,0.959163
7224,0.003224,0.957537
7225,0.003225,0.96079
7226,0.003226,0.96079
7227,0.003227,0.959163
7228,0.003228,0.96079
7229,0.003229,0.964042
7230,0.00323,0.964042
7231,0.003231,0.964042
7232,0.003232,0.965669
7233,0.003233,0.965669
7234,0.003234,0.965669
7235,0.003235,0.965669
7236,0.003236,0.967295
7237,0.003237,0.970548
7238,0.003238,0.970548
7239,0.003239,0.968921
7240,0.00324,0.968921
7241,0.003241,0.968921
7242,0.003242,0.968921
7243,0.003243,0.968921
7244,0.003244,0.972174
7245,0.003245,0.970548
7246,0.003246,0.9738
7247,0.003247,0.972174
7248,0.003248,0.9738
7249,0.003249,0.970548
7250,0.00325,0.972174
7251,0.003251,0.975426
7252,0.003252,0.972174
7253,0.003253,0.972174
7254,0.003254,0.972174
7255,0.003255,0.968921
7256,0.003256,0.968921
7257,0.003257,0.972174
7258,0.003258,0.970548
7259,0.003259,0.970548
7260,0.00326,0.970548
7261,0.003261,0.968921
7262,0.003262,0.970548
7263,0.003263,0.970548
7264,0.003264,0.967295
7265,0.003265,0.970548
7266,0.003266,0.968921
7267,0.003267,0.968921
7268,0.003268,0.965669
7269,0.003269,0.964042
7270,0.00327,0.962416
7271,0.003271,0.965669
7272,0.003272,0.962416
7273,0.003273,0.962416
7274,0.003274,0.962416
7275,0.003275,0.96079
7276,0.003276,0.957537
7277,0.003277,0.957537
7278,0.003278,0.957537
7279,0.003279,0.955911
7280,0.00328,0.957537
7281,0.003281,0.955911
7282,0.003282,0.952658
7283,0.003283,0.952658
7284,0.003284,0.949406
7285,0.003285,0.949406
7286,0.003286,0.946153
7287,0.003287,0.947779
7288,0.003288,0.944527
7289,0.003289,0.9429
7290,0.00329,0.9429
7291,0.003291,0.939648
7292,0.003292,0.938021
7293,0.003293,0.939648
7294,0.003294,0.936395
7295,0.003295,0.936395
7296,0.003296,0.934769
7297,0.003297,0.92989
7298,0.003298,0.92989
7299,0.003299,0.926637
7300,0.0033,0.925011
7301,0.003301,0.925011
7302,0.003302,0.921758
7303,0.003303,0.920132
7304,0.003304,0.91688
7305,0.003305,0.913627
7306,0.003306,0.912001
7307,0.003307,0.912001
7308,0.003308,0.910374
7309,0.003309,0.907122
7310,0.00331,0.903869
7311,0.003311,0.900617
7312,0.003312,0.900617
7313,0.003313,0.897364
7314,0.003314,0.894111
7315,0.003315,0.892485
7316,0.003316,0.889232
7317,0.003317,0.889232
7318,0.003318,0.88598
7319,0.003319,0.882727
7320,0.00332,0.882727
7321,0.003321,0.877848
7322,0.003322,0.874596
7323,0.003323,0.871343
7324,0.003324,0.868091
7325,0.003325,0.866464
7326,0.003326,0.864838
7327,0.003327,0.861585
7328,0.003328,0.858333
7329,0.003329,0.85508
7330,0.00333,0.853454
7331,0.003331,0.846949
7332,0.003332,0.848575
7333,0.003333,0.843696
7334,0.003334,0.840443
7335,0.003335,0.837191
7336,0.003336,0.833938
7337,0.003337,0.830686
7338,0.003338,0.827433
7339,0.003339,0.82418
7340,0.00334,0.82418
7341,0.003341,0.819301
7342,0.003342,0.817675
7343,0.003343,0.81117
7344,0.003344,0.807917
7345,0.003345,0.804665
7346,0.003346,0.801412
7347,0.003347,0.79816
7348,0.003348,0.794907
7349,0.003349,0.791654
7350,0.00335,0.790028
7351,0.003351,0.783523
7352,0.003352,0.78027
7353,0.003353,0.775391
7354,0.003354,0.773765
7355,0.003355,0.770512
7356,0.003356,0.765634
7357,0.003357,0.762381
7358,0.003358,0.757502
7359,0.003359,0.754249
7360,0.00336,0.750997
7361,0.003361,0.747744
7362,0.003362,0.742865
7363,0.003363,0.737986
7364,0.003364,0.734734
7365,0.003365,0.729855
7366,0.003366,0.726602
7367,0.003367,0.72335
7368,0.003368,0.718471
7369,0.003369,0.715218
7370,0.00337,0.710339
7371,0.003371,0.70546
7372,0.003372,0.702208
7373,0.003373,0.698955
7374,0.003374,0.694076
7375,0.003375,0.687571
7376,0.003376,0.685945
7377,0.003377,0.677813
7378,0.003378,0.677813
7379,0.003379,0.672934
7380,0.00338,0.668055
7381,0.003381,0.664803
7382,0.003382,0.658298
7383,0.003383,0.653419
7384,0.003384,0.646913
7385,0.003385,0.645287
7386,0.003386,0.640408
7387,0.003387,0.637156
7388,0.003388,0.632277
7389,0.003389,0.627398
7390,0.00339,0.620893
7391,0.003391,0.614387
7392,0.003392,0.612761
7393,0.003393,0.606256
7394,0.003394,0.603003
7395,0.003395,0.598124
7396,0.003396,0.591619
7397,0.003397,0.58674
7398,0.003398,0.581861
7399,0.003399,0.578609
7400,0.0034,0.575356
7401,0.003401,0.568851
7402,0.003402,0.563972
7403,0.003403,0.559093
7404,0.003404,0.552588
7405,0.003405,0.547709
7406,0.003406,0.544456
7407,0.003407,0.541204
7408,0.003408,0.534699
7409,0.003409,0.528193
7410,0.00341,0.523315
7411,0.003411,0.516809
7412,0.003412,0.513557
7413,0.003413,0.507051
7414,0.003414,0.502173
7415,0.003415,0.49892
7416,0.003416,0.492415
7417,0.003417,0.48591
7418,0.003418,0.477778
7419,0.003419,0.476152
7420,0.00342,0.469647
7421,0.003421,0.466394
7422,0.003422,0.461515
7423,0.003423,0.45501
7424,0.003424,0.448505
7425,0.003425,0.441999
7426,0.003426,0.438747
7427,0.003427,0.433868
7428,0.003428,0.427363
7429,0.003429,0.422484
7430,0.00343,0.414352
7431,0.003431,0.4111
7432,0.003432,0.404594
7433,0.003433,0.399716
7434,0.003434,0.396463
7435,0.003435,0.389958
7436,0.003436,0.383453
7437,0.003437,0.376947
7438,0.003438,0.368816
7439,0.003439,0.363937
7440,0.00344,0.359058
7441,0.003441,0.354179
7442,0.003442,0.350927
7443,0.003443,0.342795
7444,0.003444,0.33629
7445,0.003445,0.331411
7446,0.003446,0.326532
7447,0.003447,0.321653
7448,0.003448,0.315148
7449,0.003449,0.308643
7450,0.00345,0.302137
7451,0.003451,0.295632
7452,0.003452,0.290753
7453,0.003453,0.285874
7454,0.003454,0.280996
7455,0.003455,0.27449
7456,0.003456,0.267985
7457,0.003457,0.26148
7458,0.003458,0.254975
7459,0.003459,0.250096
7460,0.00346,0.243591
7461,0.003461,0.238712
7462,0.003462,0.235459
7463,0.003463,0.225701
7464,0.003464,0.219196
7465,0.003465,0.212691
7466,0.003466,0.207812
7467,0.003467,0.201307
7468,0.003468,0.198054
7469,0.003469,0.188296
7470,0.00347,0.185044
7471,0.003471,0.178539
7472,0.003472,0.172033
7473,0.003473,0.163902
7474,0.003474,0.160649
7475,0.003475,0.154144
7476,0.003476,0.149265
7477,0.003477,0.14276
7478,0.003478,0.136255
7479,0.003479,0.128123
7480,0.00348,0.124871
7481,0.003481,0.118365
7482,0.003482,0.113486
7483,0.003483,0.105355
7484,0.003484,0.0988497
7485,0.003485,0.0939708
7486,0.003486,0.0858393
7487,0.003487,0.0825867
7488,0.003488,0.0760815
7489,0.003489,0.0695763
7490,0.00349,0.0630711
7491,0.003491,0.0565659
7492,0.003492,0.0500607
7493,0.003493,0.0435554
7494,0.003494,0.0386765
7495,0.003495,0.0354239
7496,0.003496,0.0272924
7497,0.003497,0.0207872
7498,0.003498,0.014282
7499,0.003499,0.00615051
7500,0.0035,0.0012716
7501,0.003501,-0.001981
7502,0.003502,-0.00848621
7503,0.003503,-0.0149914
7504,0.003504,-0.0214966
7505,0.003505,-0.0280018
7506,0.003506,-0.034507
7507,0.003507,-0.0410122
7508,0.003508,-0.0442649
7509,0.003509,-0.0507701
7510,0.00351,-0.0572753
7511,0.003511,-0.0637805
7512,0.003512,-0.0702857
7513,0.003513,-0.0767909
7514,0.003514,-0.0816698
7515,0.003515,-0.0914276
7516,0.003516,-0.0946802
7517,0.003517,-0.101185
7518,0.003518,-0.107691
7519,0.003519,-0.114196
7520,0.00352,-0.119075
7521,0.003521,-0.12558
7522,0.003522,-0.130459
7523,0.003523,-0.136964
7524,0.003524,-0.141843
7525,0.003525,-0.149974
7526,0.003526,-0.15648
7527,0.003527,-0.162985
7528,0.003528,-0.16949
7529,0.003529,-0.174369
7530,0.00353,-0.179248
7531,0.003531,-0.185753
7532,0.003532,-0.190632
7533,0.003533,-0.197137
7534,0.003534,-0.203642
7535,0.003535,-0.210148
7536,0.003536,-0.215027
7537,0.003537,-0.219905
7538,0.003538,-0.226411
7539,0.003539,-0.232916
7540,0.00354,-0.239421
7541,0.003541,-0.245926
7542,0.003542,-0.252432
7543,0.003543,-0.25731
7544,0.003544,-0.260563
7545,0.003545,-0.267068
7546,0.003546,-0.276826
7547,0.003547,-0.283331
7548,0.003548,-0.28821
7549,0.003549,-0.293089
7550,0.00355,-0.296342
7551,0.003551,-0.304473
7552,0.003552,-0.310978
7553,0.003553,-0.315857
7554,0.003554,-0.322362
7555,0.003555,-0.328868
7556,0.003556,-0.333747
7557,0.003557,-0.336999
7558,0.003558,-0.345131
7559,0.003559,-0.351636
7560,0.00356,-0.354889
7561,0.003561,-0.36302
7562,0.003562,-0.366273
7563,0.003563,-0.374404
7564,0.003564,-0.379283
7565,0.003565,-0.382536
7566,0.003566,-0.390667
7567,0.003567,-0.397172
7568,0.003568,-0.402051
7569,0.003569,-0.408556
7570,0.00357,-0.411809
7571,0.003571,-0.415062
7572,0.003572,-0.421567
7573,0.003573,-0.428072
7574,0.003574,-0.434577
7575,0.003575,-0.441083
7576,0.003576,-0.445961
7577,0.003577,-0.449214
7578,0.003578,-0.454093
7579,0.003579,-0.460598
7580,0.00358,-0.467103
7581,0.003581,-0.473609
7582,0.003582,-0.480114
7583,0.003583,-0.483366
7584,0.003584,-0.488245
7585,0.003585,-0.491498
7586,0.003586,-0.498003
7587,0.003587,-0.504508
7588,0.003588,-0.509387
7589,0.003589,-0.515892
7590,0.00359,-0.520771
7591,0.003591,-0.524024
7592,0.003592,-0.528903
7593,0.003593,-0.533782
7594,0.003594,-0.541913
7595,0.003595,-0.545166
7596,0.003596,-0.550045
7597,0.003597,-0.554924
7598,0.003598,-0.559803
7599,0.003599,-0.564681
7600,0.0036,-0.56956
7601,0.003601,-0.574439
7602,0.003602,-0.580944
7603,0.003603,-0.585823
7604,0.003604,-0.589076
7605,0.003605,-0.593955
7606,0.003606,-0.597207
7607,0.003607,-0.603713
7608,0.003608,-0.610218
7609,0.003609,-0.615097
7610,0.00361,-0.619976
7611,0.003611,-0.623228
7612,0.003612,-0.626481
7613,0.003613,-0.63136
7614,0.003614,-0.637865
7615,0.003615,-0.641118
7616,0.003616,-0.647623
7617,0.003617,-0.650875
7618,0.003618,-0.655754
7619,0.003619,-0.659007
7620,0.00362,-0.663886
7621,0.003621,-0.667138
7622,0.003622,-0.673644
7623,0.003623,-0.676896
7624,0.003624,-0.681775
7625,0.003625,-0.686654
7626,0.003626,-0.68828
7627,0.003627,-0.694786
7628,0.003628,-0.699665
7629,0.003629,-0.70617
7630,0.00363,-0.707796
7631,0.003631,-0.712675
7632,0.003632,-0.714301
7633,0.003633,-0.717554
7634,0.003634,-0.725685
7635,0.003635,-0.727312
7636,0.003636,-0.733817
7637,0.003637,-0.735443
7638,0.003638,-0.740322
7639,0.003639,-0.743575
7640,0.00364,-0.748454
7641,0.003641,-0.751706
7642,0.003642,-0.756585
7643,0.003643,-0.761464
7644,0.003644,-0.764717
7645,0.003645,-0.766343
7646,0.003646,-0.769596
7647,0.003647,-0.772848
7648,0.003648,-0.779353
7649,0.003649,-0.784232
7650,0.00365,-0.787485
7651,0.003651,-0.787485
7652,0.003652,-0.792364
7653,0.003653,-0.795616
7654,0.003654,-0.800495
7655,0.003655,-0.803748
7656,0.003656,-0.808627
7657,0.003657,-0.811879
7658,0.003658,-0.813506
7659,0.003659,-0.816758
7660,0.00366,-0.818385
7661,0.003661,-0.82489
7662,0.003662,-0.826516
7663,0.003663,-0.833021
7664,0.003664,-0.834648
7665,0.003665,-0.834648
7666,0.003666,-0.8379
7667,0.003667,-0.844405
7668,0.003668,-0.847658
7669,0.003669,-0.850911
7670,0.00367,-0.852537
7671,0.003671,-0.855789
7672,0.003672,-0.855789
7673,0.003673,-0.860668
7674,0.003674,-0.863921
7675,0.003675,-0.867174
7676,0.003676,-0.870426
7677,0.003677,-0.873679
7678,0.003678,-0.875305
7679,0.003679,-0.875305
7680,0.00368,-0.880184
7681,0.003681,-0.883437
7682,0.003682,-0.886689
7683,0.003683,-0.889942
7684,0.003684,-0.891568
7685,0.003685,-0.893194
7686,0.003686,-0.893194
7687,0.003687,-0.896447
7688,0.003688,-0.902952
7689,0.003689,-0.901326
7690,0.00369,-0.904579
7691,0.003691,-0.906205
7692,0.003692,-0.909457
7693,0.003693,-0.911084
7694,0.003694,-0.914336
7695,0.003695,-0.917589
7696,0.003696,-0.917589
7697,0.003697,-0.917589
7698,0.003698,-0.920842
7699,0.003699,-0.924094
7700,0.0037,-0.922468
7701,0.003701,-0.928973
7702,0.003702,-0.930599
7703,0.003703,-0.930599
7704,0.003704,-0.935478
7705,0.003705,-0.933852
7706,0.003706,-0.937105
7707,0.003707,-0.937105
7708,0.003708,-0.938731
7709,0.003709,-0.941984
7710,0.00371,-0.941984
7711,0.003711,-0.945236
7712,0.003712,-0.94361
7713,0.003713,-0.946862
7714,0.003714,-0.946862
7715,0.003715,-0.950115
7716,0.003716,-0.950115
7717,0.003717,-0.951741
7718,0.003718,-0.954994
7719,0.003719,-0.951741
7720,0.00372,-0.95662
7721,0.003721,-0.954994
7722,0.003722,-0.958247
7723,0.003723,-0.961499
7724,0.003724,-0.961499
7725,0.003725,-0.961499
7726,0.003726,-0.961499
7727,0.003727,-0.959873
7728,0.003728,-0.963125
7729,0.003729,-0.966378
7730,0.00373,-0.966378
7731,0.003731,-0.964752
7732,0.003732,-0.968004
7733,0.003733,-0.968004
7734,0.003734,-0.968004
7735,0.003735,-0.966378
7736,0.003736,-0.969631
7737,0.003737,-0.972883
7738,0.003738,-0.972883
7739,0.003739,-0.971257
7740,0.00374,-0.971257
7741,0.003741,-0.971257
7742,0.003742,-0.971257
7743,0.003743,-0.971257
7744,0.003744,-0.972883
7745,0.003745,-0.976136
7746,0.003746,-0.97451
7747,0.003747,-0.97451
7748,0.003748,-0.97451
7749,0.003749,-0.972883
7750,0.00375,-0.976136
7751,0.003751,-0.97451
7752,0.003752,-0.976136
7753,0.003753,-0.97451
7754,0.003754,-0.976136
7755,0.003755,-0.972883
7756,0.003756,-0.972883
7757,0.003757,-0.972883
7758,0.003758,-0.972883
7759,0.003759,-0.972883
7760,0.00376,-0.972883
7761,0.003761,-0.972883
7762,0.003762,-0.972883
7763,0.003763,-0.971257
7764,0.003764,-0.969631
7765,0.003765,-0.969631
7766,0.003766,-0.969631
7767,0.003767,-0.966378
7768,0.003768,-0.969631
7769,0.003769,-0.966378
7770,0.00377,-0.966378
7771,0.003771,-0.966378
7772,0.003772,-0.966378
7773,0.003773,-0.963125
7774,0.003774,-0.963125
7775,0.003775,-0.963125
7776,0.003776,-0.959873
7777,0.003777,-0.961499
7778,0.003778,-0.961499
7779,0.003779,-0.958247
7780,0.00378,-0.958247
7781,0.003781,-0.954994
7782,0.003782,-0.954994
7783,0.003783,-0.954994
7784,0.003784,-0.951741
7785,0.003785,-0.950115
7786,0.003786,-0.948489
7787,0.003787,-0.948489
7788,0.003788,-0.946862
7789,0.003789,-0.946862
7790,0.00379,-0.94361
7791,0.003791,-0.941984
7792,0.003792,-0.940357
7793,0.003793,-0.940357
7794,0.003794,-0.937105
7795,0.003795,-0.937105
7796,0.003796,-0.935478
7797,0.003797,-0.933852
7798,0.003798,-0.930599
7799,0.003799,-0.928973
7800,0.0038,-0.927347
7801,0.003801,-0.925721
7802,0.003802,-0.922468
7803,0.003803,-0.922468
7804,0.003804,-0.919215
7805,0.003805,-0.917589
7806,0.003806,-0.914336
7807,0.003807,-0.91271
7808,0.003808,-0.911084
7809,0.003809,-0.907831
7810,0.00381,-0.907831
7811,0.003811,-0.906205
7812,0.003812,-0.902952
7813,0.003813,-0.8997
7814,0.003814,-0.896447
7815,0.003815,-0.893194
7816,0.003816,-0.891568
7817,0.003817,-0.891568
7818,0.003818,-0.886689
7819,0.003819,-0.886689
7820,0.00382,-0.883437
7821,0.003821,-0.878558
7822,0.003822,-0.876931
7823,0.003823,-0.873679
7824,0.003824,-0.872053
7825,0.003825,-0.8688
7826,0.003826,-0.865547
7827,0.003827,-0.863921
7828,0.003828,-0.860668
7829,0.003829,-0.857416
7830,0.00383,-0.854163
7831,0.003831,-0.850911
7832,0.003832,-0.849284
7833,0.003833,-0.846032
7834,0.003834,-0.842779
7835,0.003835,-0.839526
7836,0.003836,-0.836274
7837,0.003837,-0.833021
7838,0.003838,-0.828142
7839,0.003839,-0.828142
7840,0.00384,-0.823263
7841,0.003841,-0.820011
7842,0.003842,-0.816758
7843,0.003843,-0.813506
7844,0.003844,-0.808627
7845,0.003845,-0.808627
7846,0.003846,-0.805374
7847,0.003847,-0.798869
7848,0.003848,-0.797243
7849,0.003849,-0.79399
7850,0.00385,-0.787485
7851,0.003851,-0.784232
7852,0.003852,-0.784232
7853,0.003853,-0.779353
7854,0.003854,-0.776101
7855,0.003855,-0.771222
7856,0.003856,-0.766343
7857,0.003857,-0.761464
7858,0.003858,-0.761464
7859,0.003859,-0.754959
7860,0.00386,-0.751706
7861,0.003861,-0.75008
7862,0.003862,-0.743575
7863,0.003863,-0.738696
7864,0.003864,-0.735443
7865,0.003865,-0.732191
7866,0.003866,-0.727312
7867,0.003867,-0.725685
7868,0.003868,-0.71918
7869,0.003869,-0.715928
7870,0.00387,-0.711049
7871,0.003871,-0.70617
7872,0.003872,-0.702917
7873,0.003873,-0.701291
7874,0.003874,-0.694786
7875,0.003875,-0.689907
7876,0.003876,-0.685028
7877,0.003877,-0.678523
7878,0.003878,-0.678523
7879,0.003879,-0.673644
7880,0.00388,-0.668765
7881,0.003881,-0.663886
7882,0.003882,-0.660633
7883,0.003883,-0.654128
7884,0.003884,-0.650875
7885,0.003885,-0.647623
7886,0.003886,-0.641118
7887,0.003887,-0.636239
7888,0.003888,-0.63136
7889,0.003889,-0.626481
7890,0.00389,-0.623228
7891,0.003891,-0.619976
7892,0.003892,-0.61347
7893,0.003893,-0.608592
7894,0.003894,-0.605339
7895,0.003895,-0.598834
7896,0.003896,-0.593955
7897,0.003897,-0.58745
7898,0.003898,-0.585823
7899,0.003899,-0.579318
7900,0.0039,-0.576066
7901,0.003901,-0.567934
7902,0.003902,-0.564681
7903,0.003903,-0.558176
7904,0.003904,-0.554924
7905,0.003905,-0.551671
7906,0.003906,-0.54354
7907,0.003907,-0.538661
7908,0.003908,-0.533782
7909,0.003909,-0.530529
7910,0.00391,-0.524024
7911,0.003911,-0.519145
7912,0.003912,-0.514266
7913,0.003913,-0.507761
7914,0.003914,-0.504508
7915,0.003915,-0.498003
7916,0.003916,-0.493124
7917,0.003917,-0.488245
7918,0.003918,-0.483366
7919,0.003919,-0.476861
7920,0.00392,-0.473609
7921,0.003921,-0.467103
7922,0.003922,-0.460598
7923,0.003923,-0.454093
7924,0.003924,-0.45084
7925,0.003925,-0.444335
7926,0.003926,-0.439456
7927,0.003927,-0.434577
7928,0.003928,-0.426446
7929,0.003929,-0.421567
7930,0.00393,-0.416688
7931,0.003931,-0.411809
7932,0.003932,-0.40693
7933,0.003933,-0.400425
7934,0.003934,-0.395546
7935,0.003935,-0.389041
7936,0.003936,-0.382536
7937,0.003937,-0.377657
7938,0.003938,-0.374404
7939,0.003939,-0.366273
7940,0.00394,-0.361394
7941,0.003941,-0.354889
7942,0.003942,-0.346757
7943,0.003943,-0.345131
7944,0.003944,-0.336999
7945,0.003945,-0.333747
7946,0.003946,-0.327241
7947,0.003947,-0.320736
7948,0.003948,-0.312605
7949,0.003949,-0.309352
7950,0.00395,-0.302847
7951,0.003951,-0.299594
7952,0.003952,-0.293089
7953,0.003953,-0.286584
7954,0.003954,-0.278452
7955,0.003955,-0.2752
7956,0.003956,-0.267068
7957,0.003957,-0.263816
7958,0.003958,-0.258937
7959,0.003959,-0.250805
7960,0.00396,-0.2443
7961,0.003961,-0.237795
7962,0.003962,-0.23129
7963,0.003963,-0.228037
7964,0.003964,-0.221532
7965,0.003965,-0.215027
7966,0.003966,-0.208521
7967,0.003967,-0.202016
7968,0.003968,-0.195511
7969,0.003969,-0.192258
7970,0.00397,-0.185753
7971,0.003971,-0.179248
7972,0.003972,-0.174369
7973,0.003973,-0.167864
7974,0.003974,-0.161359
7975,0.003975,-0.154853
7976,0.003976,-0.151601
7977,0.003977,-0.143469
7978,0.003978,-0.13859
7979,0.003979,-0.132085
7980,0.00398,-0.12558
7981,0.003981,-0.119075
7982,0.003982,-0.11257
7983,0.003983,-0.107691
7984,0.003984,-0.101185
7985,0.003985,-0.0946802
7986,0.003986,-0.0898013
7987,0.003987,-0.0800435
7988,0.003988,-0.0767909
7989,0.003989,-0.0702857
7990,0.00399,-0.0654068
7991,0.003991,-0.0589016
7992,0.003992,-0.0491438
7993,0.003993,-0.0458912
7994,0.003994,-0.0410122
7995,0.003995,-0.0328807
7996,0.003996,-0.0296281
7997,0.003997,-0.0231229
7998,0.003998,-0.0166177
7999,0.003999,-0.00848621
